; Refractive index spectrum of UNEXPOSED KemLab KLIR image reversal resist
; Measured at NIST by M. Cangemi using VASE, January 2016
;
; lambda/um    n          k
0.3022   1.79404   0.030220
0.3038   1.78778   0.029740
0.3054   1.78184   0.029427
0.3070   1.77618   0.029275
0.3086   1.77079   0.029277
0.3102   1.76566   0.029426
0.3118   1.76078   0.029715
0.3134   1.75615   0.030136
0.3150   1.75176   0.030684
0.3165   1.74761   0.031351
0.3181   1.74370   0.032132
0.3197   1.74003   0.033019
0.3213   1.73663   0.033995
0.3229   1.73348   0.035038
0.3245   1.73058   0.036129
0.3261   1.72793   0.037248
0.3277   1.72552   0.038376
0.3293   1.72335   0.039496
0.3309   1.72140   0.040593
0.3325   1.71966   0.041649
0.3341   1.71812   0.042651
0.3356   1.71676   0.043585
0.3372   1.71558   0.044438
0.3388   1.71455   0.045200
0.3404   1.71366   0.045866
0.3420   1.71288   0.046433
0.3436   1.71222   0.046896
0.3452   1.71165   0.047251
0.3468   1.71116   0.047497
0.3484   1.71074   0.047629
0.3500   1.71037   0.047646
0.3516   1.71004   0.047545
0.3532   1.70974   0.047323
0.3547   1.70944   0.046980
0.3563   1.70913   0.046513
0.3579   1.70879   0.045922
0.3595   1.70837   0.045220
0.3611   1.70785   0.044436
0.3627   1.70723   0.043595
0.3643   1.70650   0.042725
0.3659   1.70566   0.041849
0.3675   1.70470   0.040991
0.3691   1.70364   0.040172
0.3707   1.70247   0.039413
0.3723   1.70122   0.038733
0.3738   1.69989   0.038152
0.3754   1.69849   0.037687
0.3770   1.69705   0.037354
0.3786   1.69558   0.037170
0.3802   1.69412   0.037149
0.3818   1.69270   0.037301
0.3834   1.69137   0.037605
0.3850   1.69014   0.038039
0.3866   1.68904   0.038578
0.3882   1.68808   0.039201
0.3898   1.68726   0.039886
0.3914   1.68658   0.040613
0.3930   1.68605   0.041363
0.3945   1.68566   0.042116
0.3961   1.68542   0.042857
0.3977   1.68532   0.043567
0.3993   1.68534   0.044231
0.4009   1.68549   0.044835
0.4025   1.68575   0.045363
0.4041   1.68612   0.045803
0.4057   1.68657   0.046142
0.4073   1.68708   0.046369
0.4089   1.68764   0.046481
0.4105   1.68823   0.046486
0.4121   1.68882   0.046390
0.4137   1.68942   0.046200
0.4152   1.69001   0.045924
0.4168   1.69059   0.045565
0.4184   1.69116   0.045132
0.4200   1.69170   0.044629
0.4216   1.69221   0.044062
0.4232   1.69269   0.043436
0.4248   1.69315   0.042755
0.4264   1.69356   0.042025
0.4280   1.69395   0.041251
0.4296   1.69429   0.040435
0.4312   1.69459   0.039583
0.4328   1.69486   0.038699
0.4344   1.69508   0.037785
0.4359   1.69526   0.036847
0.4375   1.69540   0.035887
0.4391   1.69550   0.034909
0.4407   1.69555   0.033915
0.4423   1.69557   0.032910
0.4439   1.69554   0.031895
0.4455   1.69547   0.030873
0.4471   1.69537   0.029848
0.4487   1.69522   0.028822
0.4503   1.69503   0.027797
0.4519   1.69481   0.026775
0.4535   1.69454   0.025759
0.4551   1.69425   0.024751
0.4566   1.69391   0.023753
0.4582   1.69354   0.022766
0.4598   1.69314   0.021794
0.4614   1.69271   0.020837
0.4630   1.69225   0.019897
0.4646   1.69175   0.018976
0.4662   1.69124   0.018076
0.4678   1.69069   0.017198
0.4694   1.69012   0.016344
0.4710   1.68953   0.015514
0.4726   1.68892   0.014711
0.4742   1.68829   0.013933
0.4758   1.68765   0.013183
0.4773   1.68700   0.012457
0.4789   1.68634   0.011757
0.4805   1.68566   0.011082
0.4821   1.68498   0.010432
0.4837   1.68429   0.009805
0.4853   1.68360   0.009202
0.4869   1.68290   0.008623
0.4885   1.68219   0.008067
0.4901   1.68149   0.007533
0.4917   1.68078   0.007022
0.4933   1.68006   0.006532
0.4949   1.67935   0.006065
0.4964   1.67864   0.005618
0.4980   1.67793   0.005193
0.4996   1.67721   0.004789
0.5012   1.67650   0.004405
0.5028   1.67580   0.004041
0.5044   1.67509   0.003697
0.5060   1.67439   0.003373
0.5076   1.67369   0.003068
0.5092   1.67300   0.002782
0.5108   1.67231   0.002514
0.5124   1.67163   0.002265
0.5140   1.67096   0.002035
0.5155   1.67030   0.001821
0.5171   1.66964   0.001625
0.5187   1.66899   0.001444
0.5203   1.66836   0.001277
0.5219   1.66773   0.001125
0.5235   1.66711   0.000987
0.5251   1.66651   0.000861
0.5267   1.66591   0.000747
0.5283   1.66533   0.000644
0.5299   1.66475   0.000551
0.5315   1.66419   0.000468
0.5330   1.66364   0.000394
0.5346   1.66311   0.000329
0.5362   1.66258   0.000272
0.5378   1.66206   0.000222
0.5394   1.66156   0.000179
0.5410   1.66106   0.000142
0.5426   1.66058   0.000111
0.5442   1.66010   0.000084
0.5458   1.65964   0.000063
0.5474   1.65919   0.000045
0.5490   1.65875   0.000032
0.5505   1.65832   0.000021
0.5521   1.65790   0.000013
0.5537   1.65749   0.000007
0.5553   1.65709   0.000004
0.5569   1.65669   0.000002
0.5585   1.65631   0.000000
0.5601   1.65593   0.000000
0.5617   1.65556   0.000000
0.5633   1.65521   0.000000
0.5649   1.65485   0.000000
0.5664   1.65450   0.000000
0.5680   1.65417   0.000000
0.5696   1.65383   0.000000
0.5712   1.65350   0.000000
0.5728   1.65318   0.000000
0.5744   1.65286   0.000000
0.5760   1.65255   0.000000
0.5776   1.65224   0.000000
0.5792   1.65194   0.000000
0.5808   1.65164   0.000000
0.5823   1.65134   0.000000
0.5839   1.65105   0.000000
0.5855   1.65077   0.000000
0.5871   1.65049   0.000000
0.5887   1.65021   0.000000
0.5903   1.64994   0.000000
0.5919   1.64967   0.000000
0.5935   1.64940   0.000000
0.5951   1.64914   0.000000
0.5966   1.64888   0.000000
0.5982   1.64862   0.000000
0.5998   1.64837   0.000000
0.6014   1.64812   0.000000
0.6030   1.64787   0.000000
0.6046   1.64763   0.000000
0.6062   1.64739   0.000000
0.6078   1.64715   0.000000
0.6094   1.64692   0.000000
0.6109   1.64669   0.000000
0.6125   1.64646   0.000000
0.6141   1.64623   0.000000
0.6157   1.64601   0.000000
0.6173   1.64579   0.000000
0.6189   1.64557   0.000000
0.6205   1.64536   0.000000
0.6221   1.64514   0.000000
0.6237   1.64493   0.000000
0.6252   1.64472   0.000000
0.6268   1.64452   0.000000
0.6284   1.64431   0.000000
0.6300   1.64411   0.000000
0.6316   1.64391   0.000000
0.6332   1.64372   0.000000
0.6348   1.64352   0.000000
0.6364   1.64333   0.000000
0.6379   1.64314   0.000000
0.6395   1.64295   0.000000
0.6411   1.64276   0.000000
0.6427   1.64257   0.000000
0.6443   1.64239   0.000000
0.6459   1.64221   0.000000
0.6475   1.64203   0.000000
0.6491   1.64185   0.000000
0.6506   1.64167   0.000000
0.6522   1.64150   0.000000
0.6538   1.64133   0.000000
0.6554   1.64115   0.000000
0.6570   1.64098   0.000000
0.6586   1.64082   0.000000
0.6602   1.64065   0.000000
0.6617   1.64048   0.000000
0.6633   1.64032   0.000000
0.6649   1.64016   0.000000
0.6665   1.64000   0.000000
0.6681   1.63984   0.000000
0.6697   1.63968   0.000000
0.6713   1.63953   0.000000
0.6728   1.63937   0.000000
0.6744   1.63922   0.000000
0.6760   1.63907   0.000000
0.6776   1.63891   0.000000
0.6792   1.63877   0.000000
0.6808   1.63862   0.000000
0.6824   1.63847   0.000000
0.6839   1.63833   0.000000
0.6855   1.63818   0.000000
0.6871   1.63804   0.000000
0.6887   1.63790   0.000000
0.6903   1.63775   0.000000
0.6919   1.63762   0.000000
0.6934   1.63748   0.000000
0.6950   1.63734   0.000000
0.6966   1.63720   0.000000
0.6982   1.63707   0.000000
0.6998   1.63693   0.000000
0.7014   1.63680   0.000000
0.7030   1.63667   0.000000
0.7045   1.63654   0.000000
0.7061   1.63641   0.000000
0.7077   1.63628   0.000000
0.7093   1.63615   0.000000
0.7109   1.63602   0.000000
0.7125   1.63590   0.000000
0.7140   1.63577   0.000000
0.7156   1.63565   0.000000
0.7172   1.63553   0.000000
0.7188   1.63540   0.000000
0.7204   1.63528   0.000000
0.7220   1.63516   0.000000
0.7235   1.63504   0.000000
0.7251   1.63493   0.000000
0.7267   1.63481   0.000000
0.7283   1.63469   0.000000
0.7299   1.63457   0.000000
0.7314   1.63446   0.000000
0.7330   1.63435   0.000000
0.7346   1.63423   0.000000
0.7362   1.63412   0.000000
0.7378   1.63401   0.000000
0.7394   1.63390   0.000000
0.7409   1.63379   0.000000
0.7425   1.63368   0.000000
0.7441   1.63357   0.000000
0.7457   1.63346   0.000000
0.7473   1.63335   0.000000
0.7488   1.63325   0.000000
0.7504   1.63314   0.000000
0.7520   1.63304   0.000000
0.7536   1.63293   0.000000
0.7552   1.63283   0.000000
0.7567   1.63272   0.000000
0.7583   1.63262   0.000000
0.7599   1.63252   0.000000
0.7615   1.63242   0.000000
0.7631   1.63232   0.000000
0.7646   1.63222   0.000000
0.7662   1.63212   0.000000
0.7678   1.63202   0.000000
0.7694   1.63192   0.000000
0.7710   1.63183   0.000000
0.7725   1.63173   0.000000
0.7741   1.63163   0.000000
0.7757   1.63154   0.000000
0.7773   1.63145   0.000000
0.7789   1.63135   0.000000
0.7804   1.63126   0.000000
0.7820   1.63116   0.000000
0.7836   1.63107   0.000000
0.7852   1.63098   0.000000
0.7868   1.63089   0.000000
0.7883   1.63080   0.000000
0.7899   1.63071   0.000000
0.7915   1.63062   0.000000
0.7931   1.63053   0.000000
0.7946   1.63044   0.000000
0.7962   1.63035   0.000000
0.7978   1.63026   0.000000
0.7994   1.63018   0.000000
0.8010   1.63009   0.000000
0.8025   1.63000   0.000000
0.8041   1.62992   0.000000
0.8057   1.62983   0.000000
0.8073   1.62975   0.000000
0.8088   1.62966   0.000000
0.8104   1.62958   0.000000
0.8120   1.62950   0.000000
0.8136   1.62941   0.000000
0.8151   1.62933   0.000000
0.8167   1.62925   0.000000
0.8183   1.62917   0.000000
0.8199   1.62909   0.000000
0.8214   1.62901   0.000000
0.8230   1.62893   0.000000
0.8246   1.62885   0.000000
0.8262   1.62877   0.000000
0.8277   1.62869   0.000000
0.8293   1.62861   0.000000
0.8309   1.62853   0.000000
0.8325   1.62845   0.000000
0.8340   1.62838   0.000000
0.8356   1.62830   0.000000
0.8372   1.62822   0.000000
0.8388   1.62815   0.000000
0.8403   1.62807   0.000000
0.8419   1.62800   0.000000
0.8435   1.62792   0.000000
0.8451   1.62785   0.000000
0.8466   1.62777   0.000000
0.8482   1.62770   0.000000
0.8498   1.62763   0.000000
0.8513   1.62755   0.000000
0.8529   1.62748   0.000000
0.8545   1.62741   0.000000
0.8561   1.62734   0.000000
0.8576   1.62726   0.000000
0.8592   1.62719   0.000000
0.8608   1.62712   0.000000
0.8624   1.62705   0.000000
0.8639   1.62698   0.000000
0.8655   1.62691   0.000000
0.8671   1.62684   0.000000
0.8686   1.62677   0.000000
0.8702   1.62670   0.000000
0.8718   1.62663   0.000000
0.8733   1.62657   0.000000
0.8749   1.62650   0.000000
0.8765   1.62643   0.000000
0.8781   1.62636   0.000000
0.8796   1.62630   0.000000
0.8812   1.62623   0.000000
0.8828   1.62616   0.000000
0.8843   1.62610   0.000000
0.8859   1.62603   0.000000
0.8875   1.62596   0.000000
0.8890   1.62590   0.000000
0.8906   1.62583   0.000000
0.8922   1.62577   0.000000
0.8938   1.62570   0.000000
0.8953   1.62564   0.000000
0.8969   1.62557   0.000000
0.8985   1.62551   0.000000
0.9000   1.62545   0.000000
0.9016   1.62539   0.000000
0.9032   1.62532   0.000000
0.9047   1.62526   0.000000
0.9063   1.62520   0.000000
0.9079   1.62513   0.000000
0.9094   1.62507   0.000000
0.9110   1.62501   0.000000
0.9126   1.62495   0.000000
0.9141   1.62489   0.000000
0.9157   1.62483   0.000000
0.9173   1.62477   0.000000
0.9188   1.62471   0.000000
0.9204   1.62465   0.000000
0.9220   1.62459   0.000000
0.9235   1.62453   0.000000
0.9251   1.62447   0.000000
0.9267   1.62441   0.000000
0.9282   1.62435   0.000000
0.9298   1.62429   0.000000
0.9314   1.62423   0.000000
0.9329   1.62417   0.000000
0.9345   1.62411   0.000000
0.9360   1.62406   0.000000
0.9376   1.62400   0.000000
0.9392   1.62394   0.000000
0.9407   1.62388   0.000000
0.9423   1.62383   0.000000
0.9439   1.62377   0.000000
0.9454   1.62371   0.000000
0.9470   1.62366   0.000000
0.9486   1.62360   0.000000
0.9501   1.62354   0.000000
0.9517   1.62349   0.000000
0.9532   1.62343   0.000000
0.9548   1.62338   0.000000
0.9564   1.62332   0.000000
0.9579   1.62327   0.000000
0.9595   1.62321   0.000000
0.9610   1.62316   0.000000
0.9626   1.62310   0.000000
0.9642   1.62305   0.000000
0.9657   1.62299   0.000000
0.9673   1.62294   0.000000
0.9688   1.62289   0.000000
0.9704   1.62283   0.000000
0.9720   1.62278   0.000000
0.9735   1.62272   0.000000
0.9751   1.62267   0.000000
0.9766   1.62262   0.000000
0.9782   1.62257   0.000000
0.9798   1.62251   0.000000
0.9813   1.62246   0.000000
0.9829   1.62241   0.000000
0.9844   1.62236   0.000000
0.9860   1.62231   0.000000
0.9876   1.62225   0.000000
0.9891   1.62220   0.000000
0.9907   1.62215   0.000000
0.9922   1.62210   0.000000
0.9938   1.62205   0.000000
0.9953   1.62200   0.000000
0.9969   1.62195   0.000000
0.9985   1.62190   0.000000
1.0118   1.62147   0.000000
1.0152   1.62136   0.000000
1.0186   1.62125   0.000000
1.0220   1.62115   0.000000
1.0254   1.62104   0.000000
1.0288   1.62094   0.000000
1.0322   1.62083   0.000000
1.0356   1.62073   0.000000
1.0390   1.62062   0.000000
1.0424   1.62052   0.000000
1.0458   1.62042   0.000000
1.0492   1.62032   0.000000
1.0526   1.62022   0.000000
1.0560   1.62012   0.000000
1.0594   1.62002   0.000000
1.0628   1.61992   0.000000
1.0662   1.61982   0.000000
1.0696   1.61972   0.000000
1.0730   1.61962   0.000000
1.0764   1.61952   0.000000
1.0798   1.61942   0.000000
1.0832   1.61933   0.000000
1.0866   1.61923   0.000000
1.0900   1.61914   0.000000
1.0934   1.61904   0.000000
1.0968   1.61895   0.000000
1.1002   1.61885   0.000000
1.1036   1.61876   0.000000
1.1070   1.61866   0.000000
1.1104   1.61857   0.000000
1.1138   1.61847   0.000000
1.1173   1.61838   0.000000
1.1207   1.61829   0.000000
1.1241   1.61820   0.000000
1.1275   1.61810   0.000000
1.1309   1.61801   0.000000
1.1343   1.61792   0.000000
1.1377   1.61783   0.000000
1.1411   1.61774   0.000000
1.1445   1.61765   0.000000
1.1479   1.61756   0.000000
1.1514   1.61747   0.000000
1.1548   1.61738   0.000000
1.1582   1.61729   0.000000
1.1616   1.61720   0.000000
1.1650   1.61712   0.000000
1.1684   1.61703   0.000000
1.1718   1.61694   0.000000
1.1753   1.61685   0.000000
1.1787   1.61676   0.000000
1.1821   1.61668   0.000000
1.1855   1.61659   0.000000
1.1889   1.61650   0.000000
1.1923   1.61642   0.000000
1.1958   1.61633   0.000000
1.1992   1.61624   0.000000
1.2026   1.61616   0.000000
1.2060   1.61607   0.000000
1.2094   1.61599   0.000000
1.2129   1.61590   0.000000
1.2163   1.61582   0.000000
1.2197   1.61573   0.000000
1.2231   1.61565   0.000000
1.2265   1.61556   0.000000
1.2300   1.61548   0.000000
1.2334   1.61539   0.000000
1.2368   1.61531   0.000000
1.2402   1.61523   0.000000
1.2437   1.61514   0.000000
1.2471   1.61506   0.000000
1.2505   1.61498   0.000000
1.2539   1.61489   0.000000
1.2574   1.61481   0.000000
1.2608   1.61473   0.000000
1.2642   1.61465   0.000000
1.2676   1.61456   0.000000
1.2711   1.61448   0.000000
1.2745   1.61440   0.000000
1.2779   1.61432   0.000000
1.2814   1.61424   0.000000
1.2848   1.61415   0.000000
1.2882   1.61407   0.000000
1.2916   1.61399   0.000000
1.2951   1.61391   0.000000
1.2985   1.61383   0.000000
1.3019   1.61375   0.000000
1.3054   1.61367   0.000000
1.3088   1.61359   0.000000
1.3122   1.61350   0.000000
1.3157   1.61343   0.000000
1.3191   1.61334   0.000000
1.3225   1.61326   0.000000
1.3260   1.61318   0.000000
1.3294   1.61310   0.000000
1.3329   1.61302   0.000000
1.3363   1.61294   0.000000
1.3397   1.61286   0.000000
1.3432   1.61278   0.000000
1.3466   1.61270   0.000000
1.3500   1.61262   0.000000
1.3535   1.61254   0.000000
1.3569   1.61247   0.000000
1.3604   1.61239   0.000000
1.3638   1.61231   0.000000
1.3672   1.61223   0.000000
1.3707   1.61215   0.000000
1.3741   1.61207   0.000000
1.3776   1.61199   0.000000
1.3810   1.61191   0.000000
1.3844   1.61183   0.000000
1.3879   1.61175   0.000000
1.3913   1.61167   0.000000
1.3948   1.61159   0.000000
1.3982   1.61152   0.000000
1.4017   1.61144   0.000000
1.4051   1.61136   0.000000
1.4086   1.61128   0.000000
1.4120   1.61120   0.000000
1.4155   1.61112   0.000000
1.4189   1.61104   0.000000
1.4224   1.61096   0.000000
1.4258   1.61089   0.000000
1.4292   1.61081   0.000000
1.4327   1.61073   0.000000
1.4361   1.61065   0.000000
1.4396   1.61057   0.000000
1.4430   1.61049   0.000000
1.4465   1.61042   0.000000
1.4500   1.61034   0.000000
1.4534   1.61026   0.000000
1.4569   1.61018   0.000000
1.4603   1.61010   0.000000
1.4638   1.61003   0.000000
1.4672   1.60995   0.000000
1.4707   1.60987   0.000000
1.4741   1.60979   0.000000
1.4776   1.60971   0.000000
1.4810   1.60963   0.000000
1.4845   1.60956   0.000000
1.4879   1.60948   0.000000
1.4914   1.60940   0.000000
1.4949   1.60932   0.000000
1.4983   1.60924   0.000000
1.5018   1.60916   0.000000
1.5052   1.60909   0.000000
1.5087   1.60901   0.000000
1.5122   1.60893   0.000000
1.5156   1.60885   0.000000
1.5191   1.60877   0.000000
1.5225   1.60869   0.000000
1.5260   1.60862   0.000000
1.5295   1.60854   0.000000
1.5329   1.60846   0.000000
1.5364   1.60838   0.000000
1.5398   1.60830   0.000000
1.5433   1.60823   0.000000
1.5468   1.60815   0.000000
1.5502   1.60807   0.000000
1.5537   1.60799   0.000000
1.5572   1.60791   0.000000
1.5606   1.60783   0.000000
1.5641   1.60776   0.000000
1.5676   1.60768   0.000000
1.5710   1.60760   0.000000
1.5745   1.60752   0.000000
1.5780   1.60744   0.000000
1.5814   1.60736   0.000000
1.5849   1.60728   0.000000
1.5884   1.60720   0.000000
1.5918   1.60713   0.000000
1.5953   1.60705   0.000000
1.5988   1.60697   0.000000
1.6023   1.60689   0.000000
1.6057   1.60681   0.000000
1.6092   1.60673   0.000000
1.6127   1.60665   0.000000
1.6162   1.60657   0.000000
1.6196   1.60650   0.000000
1.6231   1.60642   0.000000
1.6266   1.60634   0.000000
1.6300   1.60626   0.000000
1.6335   1.60618   0.000000
1.6370   1.60610   0.000000
1.6405   1.60602   0.000000
1.6440   1.60594   0.000000
1.6474   1.60586   0.000000
1.6509   1.60578   0.000000
1.6544   1.60570   0.000000
1.6579   1.60562   0.000000
1.6613   1.60554   0.000000
1.6648   1.60546   0.000000
1.6683   1.60538   0.000000
1.6718   1.60530   0.000000
1.6753   1.60522   0.000000
1.6787   1.60514   0.000000
1.6822   1.60506   0.000000
1.6857   1.60498   0.000000
1.6892   1.60490   0.000000
