; Refractive index spectrum of CURED KemLab KLIR image reversal resist
; Measured at NIST by M. Cangemi using VASE, January 2016
;
; lambda/um    n          k
0.3006   1.80272   0.027252
0.3022   1.79757   0.026121
0.3038   1.79266   0.025032
0.3054   1.78796   0.023992
0.3070   1.78346   0.023006
0.3086   1.77912   0.022081
0.3102   1.77494   0.021219
0.3118   1.77091   0.020426
0.3134   1.76701   0.019705
0.3150   1.76325   0.019060
0.3165   1.75962   0.018496
0.3181   1.75613   0.018013
0.3197   1.75278   0.017604
0.3213   1.74958   0.017260
0.3229   1.74651   0.016969
0.3245   1.74359   0.016723
0.3261   1.74081   0.016510
0.3277   1.73815   0.016324
0.3293   1.73562   0.016154
0.3309   1.73321   0.015994
0.3325   1.73091   0.015835
0.3341   1.72871   0.015670
0.3356   1.72661   0.015493
0.3372   1.72458   0.015301
0.3388   1.72262   0.015095
0.3404   1.72071   0.014881
0.3420   1.71887   0.014659
0.3436   1.71707   0.014433
0.3452   1.71531   0.014205
0.3468   1.71360   0.013978
0.3484   1.71192   0.013753
0.3500   1.71028   0.013533
0.3516   1.70868   0.013320
0.3532   1.70711   0.013115
0.3547   1.70558   0.012922
0.3563   1.70408   0.012740
0.3579   1.70261   0.012570
0.3595   1.70118   0.012411
0.3611   1.69978   0.012263
0.3627   1.69842   0.012123
0.3643   1.69710   0.011992
0.3659   1.69580   0.011867
0.3675   1.69454   0.011749
0.3691   1.69331   0.011636
0.3707   1.69210   0.011528
0.3723   1.69093   0.011424
0.3738   1.68978   0.011323
0.3754   1.68866   0.011224
0.3770   1.68756   0.011127
0.3786   1.68648   0.011031
0.3802   1.68542   0.010936
0.3818   1.68437   0.010845
0.3834   1.68334   0.010758
0.3850   1.68232   0.010679
0.3866   1.68131   0.010608
0.3882   1.68031   0.010548
0.3898   1.67932   0.010501
0.3914   1.67835   0.010467
0.3930   1.67739   0.010449
0.3945   1.67644   0.010448
0.3961   1.67551   0.010464
0.3977   1.67459   0.010500
0.3993   1.67369   0.010557
0.4009   1.67281   0.010636
0.4025   1.67195   0.010738
0.4041   1.67111   0.010863
0.4057   1.67030   0.011013
0.4073   1.66953   0.011185
0.4089   1.66879   0.011376
0.4105   1.66809   0.011582
0.4121   1.66742   0.011799
0.4137   1.66680   0.012025
0.4152   1.66622   0.012256
0.4168   1.66567   0.012489
0.4184   1.66517   0.012721
0.4200   1.66470   0.012950
0.4216   1.66427   0.013173
0.4232   1.66388   0.013386
0.4248   1.66352   0.013589
0.4264   1.66320   0.013779
0.4280   1.66290   0.013953
0.4296   1.66264   0.014110
0.4312   1.66241   0.014247
0.4328   1.66220   0.014363
0.4344   1.66202   0.014455
0.4359   1.66185   0.014523
0.4375   1.66170   0.014566
0.4391   1.66157   0.014586
0.4407   1.66144   0.014582
0.4423   1.66133   0.014555
0.4439   1.66122   0.014507
0.4455   1.66112   0.014437
0.4471   1.66103   0.014346
0.4487   1.66094   0.014234
0.4503   1.66085   0.014103
0.4519   1.66077   0.013952
0.4535   1.66068   0.013783
0.4551   1.66060   0.013595
0.4566   1.66051   0.013389
0.4582   1.66042   0.013166
0.4598   1.66033   0.012926
0.4614   1.66023   0.012669
0.4630   1.66013   0.012397
0.4646   1.66002   0.012108
0.4662   1.65990   0.011805
0.4678   1.65978   0.011487
0.4694   1.65964   0.011154
0.4710   1.65949   0.010808
0.4726   1.65933   0.010449
0.4742   1.65916   0.010080
0.4758   1.65897   0.009702
0.4773   1.65876   0.009317
0.4789   1.65854   0.008928
0.4805   1.65830   0.008534
0.4821   1.65804   0.008139
0.4837   1.65777   0.007742
0.4853   1.65749   0.007347
0.4869   1.65718   0.006953
0.4885   1.65686   0.006563
0.4901   1.65653   0.006178
0.4917   1.65618   0.005798
0.4933   1.65581   0.005425
0.4949   1.65543   0.005061
0.4964   1.65505   0.004705
0.4980   1.65464   0.004360
0.4996   1.65423   0.004026
0.5012   1.65380   0.003703
0.5028   1.65336   0.003394
0.5044   1.65292   0.003099
0.5060   1.65247   0.002819
0.5076   1.65201   0.002554
0.5092   1.65155   0.002305
0.5108   1.65108   0.002073
0.5124   1.65061   0.001858
0.5140   1.65014   0.001660
0.5155   1.64967   0.001478
0.5171   1.64921   0.001310
0.5187   1.64875   0.001157
0.5203   1.64829   0.001017
0.5219   1.64784   0.000889
0.5235   1.64740   0.000773
0.5251   1.64696   0.000668
0.5267   1.64652   0.000574
0.5283   1.64610   0.000490
0.5299   1.64568   0.000414
0.5315   1.64527   0.000347
0.5330   1.64486   0.000288
0.5346   1.64447   0.000237
0.5362   1.64408   0.000192
0.5378   1.64370   0.000154
0.5394   1.64332   0.000121
0.5410   1.64296   0.000093
0.5426   1.64260   0.000070
0.5442   1.64225   0.000051
0.5458   1.64191   0.000036
0.5474   1.64157   0.000025
0.5490   1.64125   0.000016
0.5505   1.64093   0.000010
0.5521   1.64061   0.000005
0.5537   1.64031   0.000002
0.5553   1.64001   0.000001
0.5569   1.63972   0.000000
0.5585   1.63943   0.000000
0.5601   1.63915   0.000000
0.5617   1.63888   0.000000
0.5633   1.63861   0.000000
0.5649   1.63834   0.000000
0.5664   1.63808   0.000000
0.5680   1.63782   0.000000
0.5696   1.63757   0.000000
0.5712   1.63732   0.000000
0.5728   1.63708   0.000000
0.5744   1.63683   0.000000
0.5760   1.63660   0.000000
0.5776   1.63636   0.000000
0.5792   1.63613   0.000000
0.5808   1.63590   0.000000
0.5823   1.63568   0.000000
0.5839   1.63546   0.000000
0.5855   1.63524   0.000000
0.5871   1.63502   0.000000
0.5887   1.63481   0.000000
0.5903   1.63460   0.000000
0.5919   1.63439   0.000000
0.5935   1.63418   0.000000
0.5951   1.63398   0.000000
0.5966   1.63378   0.000000
0.5982   1.63358   0.000000
0.5998   1.63338   0.000000
0.6014   1.63319   0.000000
0.6030   1.63299   0.000000
0.6046   1.63281   0.000000
0.6062   1.63262   0.000000
0.6078   1.63243   0.000000
0.6094   1.63225   0.000000
0.6109   1.63207   0.000000
0.6125   1.63189   0.000000
0.6141   1.63171   0.000000
0.6157   1.63153   0.000000
0.6173   1.63136   0.000000
0.6189   1.63119   0.000000
0.6205   1.63102   0.000000
0.6221   1.63085   0.000000
0.6237   1.63068   0.000000
0.6252   1.63051   0.000000
0.6268   1.63035   0.000000
0.6284   1.63019   0.000000
0.6300   1.63003   0.000000
0.6316   1.62987   0.000000
0.6332   1.62971   0.000000
0.6348   1.62956   0.000000
0.6364   1.62940   0.000000
0.6379   1.62925   0.000000
0.6395   1.62909   0.000000
0.6411   1.62895   0.000000
0.6427   1.62880   0.000000
0.6443   1.62865   0.000000
0.6459   1.62850   0.000000
0.6475   1.62836   0.000000
0.6491   1.62821   0.000000
0.6506   1.62807   0.000000
0.6522   1.62793   0.000000
0.6538   1.62779   0.000000
0.6554   1.62765   0.000000
0.6570   1.62751   0.000000
0.6586   1.62738   0.000000
0.6602   1.62724   0.000000
0.6617   1.62711   0.000000
0.6633   1.62697   0.000000
0.6649   1.62684   0.000000
0.6665   1.62671   0.000000
0.6681   1.62658   0.000000
0.6697   1.62645   0.000000
0.6713   1.62632   0.000000
0.6728   1.62620   0.000000
0.6744   1.62607   0.000000
0.6760   1.62595   0.000000
0.6776   1.62582   0.000000
0.6792   1.62570   0.000000
0.6808   1.62558   0.000000
0.6824   1.62546   0.000000
0.6839   1.62534   0.000000
0.6855   1.62522   0.000000
0.6871   1.62510   0.000000
0.6887   1.62498   0.000000
0.6903   1.62487   0.000000
0.6919   1.62475   0.000000
0.6934   1.62464   0.000000
0.6950   1.62452   0.000000
0.6966   1.62441   0.000000
0.6982   1.62430   0.000000
0.6998   1.62419   0.000000
0.7014   1.62407   0.000000
0.7030   1.62397   0.000000
0.7045   1.62386   0.000000
0.7061   1.62375   0.000000
0.7077   1.62364   0.000000
0.7093   1.62353   0.000000
0.7109   1.62343   0.000000
0.7125   1.62332   0.000000
0.7140   1.62322   0.000000
0.7156   1.62312   0.000000
0.7172   1.62301   0.000000
0.7188   1.62291   0.000000
0.7204   1.62281   0.000000
0.7220   1.62271   0.000000
0.7235   1.62261   0.000000
0.7251   1.62251   0.000000
0.7267   1.62241   0.000000
0.7283   1.62231   0.000000
0.7299   1.62221   0.000000
0.7314   1.62211   0.000000
0.7330   1.62202   0.000000
0.7346   1.62192   0.000000
0.7362   1.62183   0.000000
0.7378   1.62173   0.000000
0.7394   1.62164   0.000000
0.7409   1.62154   0.000000
0.7425   1.62145   0.000000
0.7441   1.62136   0.000000
0.7457   1.62127   0.000000
0.7473   1.62118   0.000000
0.7488   1.62109   0.000000
0.7504   1.62099   0.000000
0.7520   1.62091   0.000000
0.7536   1.62082   0.000000
0.7552   1.62073   0.000000
0.7567   1.62064   0.000000
0.7583   1.62055   0.000000
0.7599   1.62047   0.000000
0.7615   1.62038   0.000000
0.7631   1.62029   0.000000
0.7646   1.62021   0.000000
0.7662   1.62012   0.000000
0.7678   1.62004   0.000000
0.7694   1.61995   0.000000
0.7710   1.61987   0.000000
0.7725   1.61979   0.000000
0.7741   1.61970   0.000000
0.7757   1.61962   0.000000
0.7773   1.61954   0.000000
0.7789   1.61946   0.000000
0.7804   1.61938   0.000000
0.7820   1.61930   0.000000
0.7836   1.61922   0.000000
0.7852   1.61914   0.000000
0.7868   1.61906   0.000000
0.7883   1.61898   0.000000
0.7899   1.61890   0.000000
0.7915   1.61882   0.000000
0.7931   1.61875   0.000000
0.7946   1.61867   0.000000
0.7962   1.61859   0.000000
0.7978   1.61851   0.000000
0.7994   1.61844   0.000000
0.8010   1.61836   0.000000
0.8025   1.61829   0.000000
0.8041   1.61821   0.000000
0.8057   1.61814   0.000000
0.8073   1.61807   0.000000
0.8088   1.61799   0.000000
0.8104   1.61792   0.000000
0.8120   1.61784   0.000000
0.8136   1.61777   0.000000
0.8151   1.61770   0.000000
0.8167   1.61763   0.000000
0.8183   1.61756   0.000000
0.8199   1.61749   0.000000
0.8214   1.61742   0.000000
0.8230   1.61734   0.000000
0.8246   1.61727   0.000000
0.8262   1.61720   0.000000
0.8277   1.61713   0.000000
0.8293   1.61706   0.000000
0.8309   1.61700   0.000000
0.8325   1.61693   0.000000
0.8340   1.61686   0.000000
0.8356   1.61679   0.000000
0.8372   1.61672   0.000000
0.8388   1.61666   0.000000
0.8403   1.61659   0.000000
0.8419   1.61652   0.000000
0.8435   1.61645   0.000000
0.8451   1.61639   0.000000
0.8466   1.61632   0.000000
0.8482   1.61626   0.000000
0.8498   1.61619   0.000000
0.8513   1.61613   0.000000
0.8529   1.61606   0.000000
0.8545   1.61600   0.000000
0.8561   1.61593   0.000000
0.8576   1.61587   0.000000
0.8592   1.61580   0.000000
0.8608   1.61574   0.000000
0.8624   1.61568   0.000000
0.8639   1.61562   0.000000
0.8655   1.61555   0.000000
0.8671   1.61549   0.000000
0.8686   1.61543   0.000000
0.8702   1.61537   0.000000
0.8718   1.61530   0.000000
0.8733   1.61524   0.000000
0.8749   1.61518   0.000000
0.8765   1.61512   0.000000
0.8781   1.61506   0.000000
0.8796   1.61500   0.000000
0.8812   1.61494   0.000000
0.8828   1.61488   0.000000
0.8843   1.61482   0.000000
0.8859   1.61476   0.000000
0.8875   1.61470   0.000000
0.8890   1.61464   0.000000
0.8906   1.61458   0.000000
0.8922   1.61452   0.000000
0.8938   1.61446   0.000000
0.8953   1.61441   0.000000
0.8969   1.61435   0.000000
0.8985   1.61429   0.000000
0.9000   1.61423   0.000000
0.9016   1.61417   0.000000
0.9032   1.61412   0.000000
0.9047   1.61406   0.000000
0.9063   1.61400   0.000000
0.9079   1.61394   0.000000
0.9094   1.61389   0.000000
0.9110   1.61383   0.000000
0.9126   1.61377   0.000000
0.9141   1.61372   0.000000
0.9157   1.61366   0.000000
0.9173   1.61361   0.000000
0.9188   1.61355   0.000000
0.9204   1.61350   0.000000
0.9220   1.61344   0.000000
0.9235   1.61339   0.000000
0.9251   1.61333   0.000000
0.9267   1.61328   0.000000
0.9282   1.61322   0.000000
0.9298   1.61317   0.000000
0.9314   1.61312   0.000000
0.9329   1.61306   0.000000
0.9345   1.61301   0.000000
0.9360   1.61295   0.000000
0.9376   1.61290   0.000000
0.9392   1.61285   0.000000
0.9407   1.61279   0.000000
0.9423   1.61274   0.000000
0.9439   1.61269   0.000000
0.9454   1.61264   0.000000
0.9470   1.61258   0.000000
0.9486   1.61253   0.000000
0.9501   1.61248   0.000000
0.9517   1.61243   0.000000
0.9532   1.61238   0.000000
0.9548   1.61232   0.000000
0.9564   1.61227   0.000000
0.9579   1.61222   0.000000
0.9595   1.61217   0.000000
0.9610   1.61212   0.000000
0.9626   1.61207   0.000000
0.9642   1.61202   0.000000
0.9657   1.61197   0.000000
0.9673   1.61192   0.000000
0.9688   1.61187   0.000000
0.9704   1.61181   0.000000
0.9720   1.61176   0.000000
0.9735   1.61172   0.000000
0.9751   1.61166   0.000000
0.9766   1.61162   0.000000
0.9782   1.61157   0.000000
0.9798   1.61152   0.000000
0.9813   1.61147   0.000000
0.9829   1.61142   0.000000
0.9844   1.61137   0.000000
0.9860   1.61132   0.000000
0.9876   1.61127   0.000000
0.9891   1.61122   0.000000
0.9907   1.61117   0.000000
0.9922   1.61112   0.000000
0.9938   1.61108   0.000000
0.9953   1.61103   0.000000
0.9969   1.61098   0.000000
0.9985   1.61093   0.000000
1.0118   1.61052   0.000000
1.0152   1.61042   0.000000
1.0186   1.61032   0.000000
1.0220   1.61022   0.000000
1.0254   1.61012   0.000000
1.0288   1.61002   0.000000
1.0322   1.60992   0.000000
1.0356   1.60982   0.000000
1.0390   1.60972   0.000000
1.0424   1.60962   0.000000
1.0458   1.60952   0.000000
1.0492   1.60942   0.000000
1.0526   1.60932   0.000000
1.0560   1.60923   0.000000
1.0594   1.60913   0.000000
1.0628   1.60903   0.000000
1.0662   1.60894   0.000000
1.0696   1.60884   0.000000
1.0730   1.60875   0.000000
1.0764   1.60865   0.000000
1.0798   1.60856   0.000000
1.0832   1.60846   0.000000
1.0866   1.60837   0.000000
1.0900   1.60827   0.000000
1.0934   1.60818   0.000000
1.0968   1.60808   0.000000
1.1002   1.60799   0.000000
1.1036   1.60790   0.000000
1.1070   1.60781   0.000000
1.1104   1.60771   0.000000
1.1138   1.60762   0.000000
1.1173   1.60753   0.000000
1.1207   1.60744   0.000000
1.1241   1.60735   0.000000
1.1275   1.60726   0.000000
1.1309   1.60716   0.000000
1.1343   1.60707   0.000000
1.1377   1.60698   0.000000
1.1411   1.60689   0.000000
1.1445   1.60680   0.000000
1.1479   1.60671   0.000000
1.1514   1.60662   0.000000
1.1548   1.60653   0.000000
1.1582   1.60644   0.000000
1.1616   1.60635   0.000000
1.1650   1.60627   0.000000
1.1684   1.60618   0.000000
1.1718   1.60609   0.000000
1.1753   1.60600   0.000000
1.1787   1.60591   0.000000
1.1821   1.60582   0.000000
1.1855   1.60573   0.000000
1.1889   1.60565   0.000000
1.1923   1.60556   0.000000
1.1958   1.60547   0.000000
1.1992   1.60538   0.000000
1.2026   1.60530   0.000000
1.2060   1.60521   0.000000
1.2094   1.60512   0.000000
1.2129   1.60504   0.000000
1.2163   1.60495   0.000000
1.2197   1.60486   0.000000
1.2231   1.60478   0.000000
1.2265   1.60469   0.000000
1.2300   1.60460   0.000000
1.2334   1.60452   0.000000
1.2368   1.60443   0.000000
1.2402   1.60434   0.000000
1.2437   1.60426   0.000000
1.2471   1.60417   0.000000
1.2505   1.60409   0.000000
1.2539   1.60400   0.000000
1.2574   1.60392   0.000000
1.2608   1.60383   0.000000
1.2642   1.60374   0.000000
1.2676   1.60366   0.000000
1.2711   1.60357   0.000000
1.2745   1.60349   0.000000
1.2779   1.60340   0.000000
1.2814   1.60332   0.000000
1.2848   1.60323   0.000000
1.2882   1.60315   0.000000
1.2916   1.60306   0.000000
1.2951   1.60298   0.000000
1.2985   1.60289   0.000000
1.3019   1.60281   0.000000
1.3054   1.60272   0.000000
1.3088   1.60264   0.000000
1.3122   1.60256   0.000000
1.3157   1.60247   0.000000
1.3191   1.60239   0.000000
1.3225   1.60230   0.000000
1.3260   1.60222   0.000000
1.3294   1.60213   0.000000
1.3329   1.60205   0.000000
1.3363   1.60197   0.000000
1.3397   1.60188   0.000000
1.3432   1.60180   0.000000
1.3466   1.60171   0.000000
1.3500   1.60163   0.000000
1.3535   1.60154   0.000000
1.3569   1.60146   0.000000
1.3604   1.60137   0.000000
1.3638   1.60129   0.000000
1.3672   1.60121   0.000000
1.3707   1.60112   0.000000
1.3741   1.60104   0.000000
1.3776   1.60095   0.000000
1.3810   1.60087   0.000000
1.3844   1.60078   0.000000
1.3879   1.60070   0.000000
1.3913   1.60062   0.000000
1.3948   1.60053   0.000000
1.3982   1.60045   0.000000
1.4017   1.60036   0.000000
1.4051   1.60028   0.000000
1.4086   1.60020   0.000000
1.4120   1.60011   0.000000
1.4155   1.60003   0.000000
1.4189   1.59994   0.000000
1.4224   1.59986   0.000000
1.4258   1.59977   0.000000
1.4292   1.59969   0.000000
1.4327   1.59960   0.000000
1.4361   1.59952   0.000000
1.4396   1.59944   0.000000
1.4430   1.59935   0.000000
1.4465   1.59927   0.000000
1.4500   1.59918   0.000000
1.4534   1.59910   0.000000
1.4569   1.59901   0.000000
1.4603   1.59893   0.000000
1.4638   1.59884   0.000000
1.4672   1.59876   0.000000
1.4707   1.59868   0.000000
1.4741   1.59859   0.000000
1.4776   1.59851   0.000000
1.4810   1.59842   0.000000
1.4845   1.59834   0.000000
1.4879   1.59825   0.000000
1.4914   1.59817   0.000000
1.4949   1.59808   0.000000
1.4983   1.59800   0.000000
1.5018   1.59791   0.000000
1.5052   1.59783   0.000000
1.5087   1.59774   0.000000
1.5122   1.59765   0.000000
1.5156   1.59757   0.000000
1.5191   1.59748   0.000000
1.5225   1.59740   0.000000
1.5260   1.59731   0.000000
1.5295   1.59723   0.000000
1.5329   1.59714   0.000000
1.5364   1.59705   0.000000
1.5398   1.59697   0.000000
1.5433   1.59688   0.000000
1.5468   1.59680   0.000000
1.5502   1.59671   0.000000
1.5537   1.59663   0.000000
1.5572   1.59654   0.000000
1.5606   1.59645   0.000000
1.5641   1.59637   0.000000
1.5676   1.59628   0.000000
1.5710   1.59619   0.000000
1.5745   1.59611   0.000000
1.5780   1.59602   0.000000
1.5814   1.59593   0.000000
1.5849   1.59585   0.000000
1.5884   1.59576   0.000000
1.5918   1.59567   0.000000
1.5953   1.59559   0.000000
1.5988   1.59550   0.000000
1.6023   1.59541   0.000000
1.6057   1.59533   0.000000
1.6092   1.59524   0.000000
1.6127   1.59515   0.000000
1.6162   1.59506   0.000000
1.6196   1.59498   0.000000
1.6231   1.59489   0.000000
1.6266   1.59480   0.000000
1.6300   1.59471   0.000000
1.6335   1.59462   0.000000
1.6370   1.59454   0.000000
1.6405   1.59445   0.000000
1.6440   1.59436   0.000000
1.6474   1.59427   0.000000
1.6509   1.59418   0.000000
1.6544   1.59410   0.000000
1.6579   1.59401   0.000000
1.6613   1.59392   0.000000
1.6648   1.59383   0.000000
1.6683   1.59374   0.000000
1.6718   1.59365   0.000000
1.6753   1.59356   0.000000
1.6787   1.59347   0.000000
1.6822   1.59338   0.000000
1.6857   1.59329   0.000000
1.6892   1.59320   0.000000
