; From SOPRA S.A. http://www.sopra-sa.com/indices.htm
; Filename    Symbol               Range (nm)     Description
; 7059        7059                250      900    Glass 7059
; lambda/um       n         k
0.25000  1.600554  0.000000
0.26000  1.598573  0.000000
0.27000  1.594827  0.000000
0.28000  1.589698  0.000000
0.29000  1.580481  0.000000
0.30000  1.578860  0.000000
0.31000  1.573996  0.000000
0.32000  1.570455  0.000000
0.33000  1.567529  0.000000
0.34000  1.565412  0.000000
0.35000  1.562746  0.000000
0.36000  1.560887  0.000000
0.37000  1.557660  0.000000
0.38000  1.556334  0.000000
0.39000  1.554327  0.000000
0.40000  1.553069  0.000000
0.41000  1.550919  0.000000
0.42000  1.550192  0.000000
0.43000  1.549295  0.000000
0.44000  1.548726  0.000000
0.45000  1.547578  0.000000
0.46000  1.546176  0.000000
0.47000  1.545128  0.000000
0.48000  1.544499  0.000000
0.49000  1.544377  0.000000
0.50000  1.543887  0.000000
0.51000  1.542843  0.000000
0.52000  1.541416  0.000000
0.53000  1.541853  0.000000
0.54000  1.541278  0.000000
0.55000  1.540888  0.000000
0.56000  1.541587  0.000000
0.57000  1.541599  0.000000
0.58000  1.540024  0.000000
0.59000  1.539081  0.000000
0.60000  1.539439  0.000000
0.61000  1.537805  0.000000
0.62000  1.537365  0.000000
0.63000  1.536842  0.000000
0.64000  1.535643  0.000000
0.65000  1.535242  0.000000
0.66000  1.535330  0.000000
0.67000  1.534870  0.000000
0.68000  1.534056  0.000000
0.69000  1.533884  0.000000
0.70000  1.533791  0.000000
0.71000  1.532683  0.000000
0.72000  1.533638  0.000000
0.73000  1.533646  0.000000
0.74000  1.532032  0.000000
0.75000  1.531743  0.000000
0.76000  1.532456  0.000000
0.77000  1.531269  0.000000
0.78000  1.531927  0.000000
0.79000  1.532355  0.000000
0.80000  1.531374  0.000000
0.81000  1.530895  0.000000
0.82000  1.529314  0.000000
0.83000  1.529998  0.000000
0.84000  1.530490  0.000000
0.85000  1.532562  0.000000
