; From SOPRA S.A. http://www.sopra-sa.com/indices.htm
; Filename    Symbol               Range (nm)     Description
; AL2O3       Al2O3               250      900    Aluminum Oxide
; lambda/um       n         k
0.25000  1.733100  0.000000
0.27500  1.716300  0.000000
0.30000  1.704200  0.000000
0.32500  1.695100  0.000000
0.35000  1.688100  0.000000
0.37500  1.682500  0.000000
0.40000  1.678000  0.000000
0.42500  1.674300  0.000000
0.45000  1.671300  0.000000
0.47500  1.668700  0.000000
0.50000  1.666500  0.000000
0.52500  1.664600  0.000000
0.55000  1.662900  0.000000
0.57500  1.661400  0.000000
0.60000  1.660100  0.000000
0.62500  1.659000  0.000000
0.65000  1.657900  0.000000
0.67500  1.657000  0.000000
0.70000  1.656100  0.000000
0.72500  1.655300  0.000000
0.75000  1.654600  0.000000
0.77500  1.653900  0.000000
0.80000  1.653200  0.000000
0.82500  1.652600  0.000000
0.85000  1.652000  0.000000
0.87500  1.651500  0.000000
0.90000  1.650900  0.000000
