; From SOPRA S.A. http://www.sopra-sa.com/indices.htm
; Filename    Symbol               Range (nm)     Description
; ALGAAS6     Al0.590Ga0.410As    206     2479    Aluminum Gallium Arsenide (60% Al)
; lambda/um       n         k
0.20664  1.385225  2.419681
0.20733  1.374258  2.438862
0.20803  1.384734  2.444048
0.20873  1.376025  2.456563
0.20943  1.371329  2.471764
0.21014  1.370381  2.485820
0.21086  1.371222  2.495128
0.21158  1.369109  2.511339
0.21230  1.365845  2.535080
0.21303  1.368103  2.547804
0.21377  1.370399  2.565021
0.21451  1.374117  2.588449
0.21525  1.378679  2.605550
0.21600  1.379968  2.624796
0.21676  1.386099  2.646858
0.21752  1.389103  2.669001
0.21828  1.392683  2.690044
0.21906  1.398576  2.713221
0.21983  1.407002  2.736413
0.22061  1.411969  2.759950
0.22140  1.421944  2.784610
0.22220  1.430882  2.810437
0.22299  1.442352  2.836746
0.22380  1.452397  2.860626
0.22461  1.462566  2.888433
0.22543  1.474966  2.915318
0.22625  1.489507  2.942178
0.22708  1.502823  2.970608
0.22791  1.517406  2.998585
0.22875  1.535179  3.029749
0.22960  1.553445  3.059217
0.23046  1.572101  3.089520
0.23132  1.591967  3.120013
0.23218  1.614159  3.152050
0.23305  1.636472  3.184349
0.23393  1.660495  3.216662
0.23482  1.685981  3.250482
0.23571  1.712689  3.284429
0.23661  1.740410  3.319262
0.23752  1.772575  3.354409
0.23843  1.804969  3.391871
0.23935  1.838843  3.428933
0.24028  1.877277  3.465505
0.24122  1.917906  3.503817
0.24216  1.961215  3.541882
0.24311  2.007102  3.581090
0.24407  2.056890  3.620355
0.24503  2.112111  3.658988
0.24600  2.171531  3.697648
0.24698  2.237239  3.735718
0.24797  2.304433  3.771903
0.24897  2.382586  3.802031
0.24997  2.465827  3.831726
0.25098  2.554781  3.855756
0.25200  2.646447  3.869976
0.25303  2.739934  3.880724
0.25407  2.831516  3.883392
0.25511  2.924022  3.881791
0.25617  3.015903  3.880183
0.25723  3.113372  3.876887
0.25830  3.220661  3.866323
0.25938  3.335021  3.844015
0.26047  3.452327  3.802835
0.26157  3.561469  3.750015
0.26268  3.665422  3.689603
0.26380  3.762421  3.617264
0.26493  3.858094  3.536762
0.26606  3.947091  3.443317
0.26721  4.022406  3.336802
0.26837  4.079856  3.223563
0.26953  4.120320  3.106554
0.27071  4.144351  2.993269
0.27190  4.155110  2.887701
0.27310  4.152895  2.789474
0.27430  4.142706  2.698738
0.27552  4.127392  2.615657
0.27675  4.109149  2.543440
0.27799  4.085381  2.478057
0.27925  4.064620  2.418177
0.28051  4.039886  2.365285
0.28178  4.014853  2.317963
0.28307  3.990315  2.275105
0.28437  3.967859  2.237304
0.28568  3.946848  2.201152
0.28700  3.923827  2.171012
0.28834  3.903263  2.142207
0.28969  3.883120  2.117700
0.29105  3.864342  2.094646
0.29242  3.847849  2.073433
0.29380  3.831182  2.054684
0.29520  3.815386  2.038209
0.29662  3.801772  2.023261
0.29804  3.789472  2.009586
0.29948  3.777939  1.998321
0.30093  3.767934  1.987329
0.30240  3.758203  1.978259
0.30389  3.750321  1.969211
0.30538  3.743140  1.962148
0.30689  3.737051  1.955674
0.30842  3.731780  1.950804
0.30996  3.728465  1.946636
0.31152  3.725173  1.941575
0.31309  3.722029  1.939756
0.31468  3.722341  1.937457
0.31629  3.722876  1.936605
0.31791  3.724958  1.935332
0.31955  3.726698  1.935994
0.32121  3.730422  1.936369
0.32288  3.736164  1.938171
0.32457  3.743022  1.940612
0.32628  3.750492  1.943949
0.32800  3.760458  1.948246
0.32975  3.772775  1.953403
0.33151  3.785723  1.958398
0.33329  3.802876  1.965662
0.33510  3.821569  1.972642
0.33692  3.844158  1.979897
0.33876  3.870413  1.987381
0.34062  3.901109  1.994324
0.34250  3.937128  1.999206
0.34440  3.976709  2.002072
0.34633  4.022798  2.000538
0.34827  4.071405  1.992272
0.35024  4.124472  1.974912
0.35223  4.174008  1.953816
0.35424  4.223799  1.924460
0.35628  4.268653  1.893558
0.35834  4.310675  1.858490
0.36042  4.347287  1.825264
0.36253  4.386253  1.789766
0.36466  4.429290  1.753702
0.36682  4.478403  1.713628
0.36900  4.528401  1.668034
0.37121  4.581172  1.608446
0.37345  4.627394  1.535471
0.37571  4.665544  1.449590
0.37800  4.687292  1.358254
0.38032  4.693223  1.268726
0.38267  4.687282  1.182278
0.38505  4.672042  1.101161
0.38745  4.649354  1.027704
0.38989  4.621712  0.960608
0.39236  4.591393  0.900243
0.39486  4.560560  0.845132
0.39739  4.528397  0.798147
0.39995  4.497122  0.753889
0.40255  4.465661  0.714029
0.40518  4.433850  0.677774
0.40785  4.403281  0.643487
0.41055  4.372625  0.612053
0.41328  4.342585  0.583765
0.41606  4.314282  0.557339
0.41887  4.286848  0.531772
0.42172  4.260180  0.511106
0.42461  4.234074  0.489616
0.42754  4.208447  0.467186
0.43050  4.183883  0.447993
0.43351  4.159879  0.430026
0.43657  4.136237  0.413799
0.43966  4.114053  0.397630
0.44280  4.092286  0.383571
0.44599  4.071241  0.368320
0.44922  4.050705  0.354118
0.45250  4.030976  0.340110
0.45583  4.010937  0.327988
0.45920  3.992135  0.317425
0.46263  3.973951  0.308045
0.46611  3.955724  0.297674
0.46964  3.940379  0.284383
0.47323  3.922630  0.276433
0.47687  3.908458  0.262038
0.48056  3.892851  0.253066
0.48432  3.879821  0.241045
0.48813  3.866013  0.231241
0.49200  3.851921  0.220794
0.49594  3.837230  0.205745
0.49994  3.821048  0.197571
0.50400  3.804986  0.186669
0.50814  3.788862  0.175710
0.51234  3.773172  0.166445
0.51660  3.757898  0.157464
0.52095  3.743134  0.151328
0.52536  3.729324  0.142986
0.52985  3.715056  0.138534
0.53442  3.702201  0.131755
0.53907  3.689907  0.126079
0.54379  3.678383  0.119190
0.54861  3.669134  0.114244
0.55351  3.665526  0.105700
0.55849  3.664943  0.089627
0.56357  3.658078  0.062329
0.56874  3.637997  0.036872
0.57401  3.613367  0.020605
0.57937  3.589503  0.012176
0.58484  3.566282  0.006924
0.59041  3.546016  0.004757
0.59608  3.526910  0.004122
0.60187  3.512736  0.003347
0.60777  3.495272  0.000790
0.61379  3.481081  0.001657
0.61993  3.466457  0.000349
0.62619  3.452873  0.001119
0.63258  3.440355  0.001218
0.63910  3.428888  0.000560
0.64576  3.415964  0.000156
0.65255  3.404558  0.001675
0.65950  3.394828  0.000049
0.66659  3.381505  0.000000
0.67383  3.371871  0.000000
0.68124  3.362900  0.000000
0.68881  3.353510  0.000000
0.69655  3.343876  0.000000
0.70446  3.335229  0.000000
0.71256  3.327520  0.000000
0.72084  3.320059  0.000000
0.72932  3.312569  0.000000
0.73801  3.304261  0.000000
0.74690  3.296725  0.000000
0.75601  3.289162  0.000000
0.76534  3.281544  0.000000
0.77491  3.274344  0.000000
0.78472  3.267233  0.000000
0.79478  3.258976  0.000000
0.80510  3.251028  0.000000
0.81569  3.244100  0.000000
0.82657  3.237283  0.000000
