; From SOPRA S.A. http://www.sopra-sa.com/indices.htm
; Filename    Symbol               Range (nm)     Description
; ALGAAS5     Al0.491Ga0.509As    206     2479    Aluminum Gallium Arsenide (50% Al)
; lambda/um       n         k
0.20664  1.366075  2.418440
0.20733  1.361920  2.440423
0.20803  1.365938  2.451711
0.20873  1.364075  2.464671
0.20943  1.362213  2.480138
0.21014  1.361971  2.492765
0.21086  1.363787  2.504417
0.21158  1.361984  2.524088
0.21230  1.363248  2.538068
0.21303  1.362118  2.549515
0.21377  1.364175  2.572072
0.21451  1.367617  2.588694
0.21525  1.368133  2.608411
0.21600  1.371742  2.624925
0.21676  1.376529  2.643306
0.21752  1.378761  2.666038
0.21828  1.385970  2.688015
0.21906  1.391747  2.709427
0.21983  1.396655  2.731816
0.22061  1.405776  2.756845
0.22140  1.412033  2.779599
0.22220  1.421718  2.803550
0.22299  1.430855  2.826942
0.22380  1.441077  2.852152
0.22461  1.451458  2.878837
0.22543  1.461644  2.903302
0.22625  1.474968  2.931040
0.22708  1.487344  2.955938
0.22791  1.501806  2.988821
0.22875  1.517725  3.015054
0.22960  1.532513  3.044595
0.23046  1.551641  3.073224
0.23132  1.568586  3.103869
0.23218  1.589251  3.134421
0.23305  1.610125  3.165086
0.23393  1.632128  3.199174
0.23482  1.653033  3.232523
0.23571  1.679216  3.265810
0.23661  1.703873  3.303456
0.23752  1.732099  3.337435
0.23843  1.762923  3.377536
0.23935  1.794706  3.415272
0.24028  1.829004  3.454437
0.24122  1.866189  3.494653
0.24216  1.907037  3.536177
0.24311  1.951267  3.579076
0.24407  2.000129  3.620822
0.24503  2.052790  3.663462
0.24600  2.113560  3.706224
0.24698  2.178825  3.748233
0.24797  2.249851  3.786744
0.24897  2.329014  3.822039
0.24997  2.414575  3.854050
0.25098  2.503565  3.877752
0.25200  2.595434  3.894394
0.25303  2.686138  3.903836
0.25407  2.778851  3.911050
0.25511  2.872170  3.914786
0.25617  2.971127  3.917224
0.25723  3.075569  3.912761
0.25830  3.186799  3.898504
0.25938  3.300041  3.871345
0.26047  3.414844  3.832645
0.26157  3.523506  3.780392
0.26268  3.630259  3.718324
0.26380  3.731277  3.645088
0.26493  3.824918  3.560505
0.26606  3.906963  3.465657
0.26721  3.977500  3.361810
0.26837  4.032046  3.254437
0.26953  4.071696  3.146485
0.27071  4.098877  3.040026
0.27190  4.115076  2.938390
0.27310  4.120085  2.842110
0.27430  4.117474  2.750932
0.27552  4.107262  2.667895
0.27675  4.093944  2.590762
0.27799  4.075458  2.521404
0.27925  4.054656  2.458490
0.28051  4.032657  2.401826
0.28178  4.009012  2.350481
0.28307  3.985109  2.303842
0.28437  3.961722  2.261772
0.28568  3.938065  2.224283
0.28700  3.916230  2.190385
0.28834  3.894013  2.159063
0.28969  3.872719  2.131713
0.29105  3.852628  2.106443
0.29242  3.833414  2.083551
0.29380  3.814789  2.063567
0.29520  3.797769  2.045988
0.29662  3.782559  2.029175
0.29804  3.768414  2.014895
0.29948  3.754635  2.001839
0.30093  3.742321  1.989547
0.30240  3.730177  1.979558
0.30389  3.720202  1.970306
0.30538  3.710647  1.962760
0.30689  3.702490  1.955810
0.30842  3.695424  1.949658
0.30996  3.688329  1.944765
0.31152  3.682619  1.940785
0.31309  3.678219  1.937489
0.31468  3.674533  1.935109
0.31629  3.672896  1.933582
0.31791  3.670658  1.932988
0.31955  3.670274  1.933193
0.32121  3.670423  1.934360
0.32288  3.672615  1.936196
0.32457  3.675935  1.938369
0.32628  3.680073  1.941986
0.32800  3.685866  1.945626
0.32975  3.693267  1.950305
0.33151  3.701751  1.955993
0.33329  3.712076  1.962001
0.33510  3.724354  1.969375
0.33692  3.738457  1.977526
0.33876  3.754784  1.986324
0.34062  3.773233  1.996123
0.34250  3.795100  2.006797
0.34440  3.821507  2.017459
0.34633  3.851774  2.028520
0.34827  3.888123  2.038641
0.35024  3.930778  2.047007
0.35223  3.979627  2.051450
0.35424  4.033944  2.048850
0.35628  4.090839  2.037804
0.35834  4.147681  2.017136
0.36042  4.201324  1.989620
0.36253  4.250763  1.956756
0.36466  4.293977  1.921570
0.36682  4.335618  1.886791
0.36900  4.376050  1.853664
0.37121  4.419622  1.820648
0.37345  4.468223  1.787196
0.37571  4.525223  1.748480
0.37800  4.587023  1.696610
0.38032  4.648258  1.628765
0.38267  4.700516  1.541897
0.38505  4.736908  1.443017
0.38745  4.753509  1.339592
0.38989  4.752254  1.239234
0.39236  4.736892  1.147682
0.39486  4.714407  1.063118
0.39739  4.685534  0.990990
0.39995  4.653903  0.926633
0.40255  4.620527  0.867606
0.40518  4.587157  0.813400
0.40785  4.552376  0.765616
0.41055  4.517185  0.723221
0.41328  4.482953  0.683894
0.41606  4.449331  0.650906
0.41887  4.417170  0.619621
0.42172  4.387100  0.587958
0.42461  4.356987  0.560417
0.42754  4.327797  0.534196
0.43050  4.299581  0.509222
0.43351  4.271924  0.487916
0.43657  4.244847  0.467444
0.43966  4.219695  0.447928
0.44280  4.194650  0.428680
0.44599  4.170649  0.412486
0.44922  4.146913  0.396229
0.45250  4.124748  0.379811
0.45583  4.101860  0.367931
0.45920  4.080497  0.355479
0.46263  4.060198  0.342568
0.46611  4.039136  0.331979
0.46964  4.021055  0.319081
0.47323  4.000535  0.309280
0.47687  3.985162  0.292655
0.48056  3.966654  0.283212
0.48432  3.950660  0.271499
0.48813  3.934286  0.261408
0.49200  3.917893  0.253297
0.49594  3.903251  0.245263
0.49994  3.888400  0.237770
0.50400  3.875354  0.231091
0.50814  3.862859  0.223058
0.51234  3.851068  0.214542
0.51660  3.837589  0.204766
0.52095  3.823730  0.196250
0.52536  3.808948  0.186812
0.52985  3.793085  0.178424
0.53442  3.776980  0.170402
0.53907  3.760669  0.164004
0.54379  3.746330  0.158100
0.54861  3.732070  0.151523
0.55351  3.718942  0.145543
0.55849  3.706142  0.139188
0.56357  3.695595  0.133143
0.56874  3.685715  0.124900
0.57401  3.675996  0.116143
0.57937  3.666406  0.107562
0.58484  3.660420  0.100435
0.59041  3.664294  0.087860
0.59608  3.663732  0.052623
0.60187  3.635743  0.020070
0.60777  3.606637  0.004063
0.61379  3.578078  0.000955
0.61993  3.557933  0.001719
0.62619  3.537910  0.001192
0.63258  3.522043  0.003206
0.63910  3.507757  0.002227
0.64576  3.493018  0.000944
0.65255  3.476945  0.000032
0.65950  3.462101  0.002422
0.66659  3.451276  0.003546
0.67383  3.439486  0.002381
0.68124  3.427795  0.001278
0.68881  3.416934  0.000117
0.69655  3.407061  0.000000
0.70446  3.396722  0.000000
0.71256  3.385267  0.000000
0.72084  3.375497  0.000000
0.72932  3.368104  0.000000
0.73801  3.360555  0.000000
0.74690  3.352039  0.000000
0.75601  3.343385  0.000000
0.76534  3.336364  0.000000
0.77491  3.328519  0.000000
0.78472  3.320047  0.000000
0.79478  3.311978  0.000000
0.80510  3.303346  0.000000
0.81569  3.293020  0.000000
0.82657  3.283291  0.000000
