; From SOPRA S.A. http://www.sopra-sa.com/indices.htm
; Filename    Symbol               Range (nm)     Description
; ALGAAS4     Al0.419Ga0.581As    206     2479    Aluminum Gallium Arsenide (40% Al)
; lambda/um       n         k
0.20664  1.352728  2.440081
0.20733  1.350257  2.443121
0.20803  1.360752  2.466948
0.20873  1.346780  2.472640
0.20943  1.355175  2.484989
0.21014  1.348981  2.506279
0.21086  1.352179  2.514701
0.21158  1.354406  2.525621
0.21230  1.358034  2.544107
0.21303  1.358259  2.562167
0.21377  1.356748  2.574454
0.21451  1.362768  2.595530
0.21525  1.364112  2.615039
0.21600  1.367407  2.636029
0.21676  1.373027  2.652536
0.21752  1.377155  2.674280
0.21828  1.382554  2.696295
0.21906  1.388927  2.716304
0.21983  1.392284  2.738343
0.22061  1.400223  2.763277
0.22140  1.406561  2.782877
0.22220  1.415855  2.808113
0.22299  1.424226  2.832671
0.22380  1.433285  2.856915
0.22461  1.444802  2.882109
0.22543  1.456295  2.907868
0.22625  1.468279  2.934122
0.22708  1.480383  2.962148
0.22791  1.493404  2.988811
0.22875  1.507833  3.018374
0.22960  1.522536  3.046613
0.23046  1.539308  3.075663
0.23132  1.556916  3.106529
0.23218  1.573205  3.137202
0.23305  1.592445  3.169173
0.23393  1.613441  3.201191
0.23482  1.634936  3.236236
0.23571  1.658305  3.270368
0.23661  1.683737  3.307708
0.23752  1.710060  3.346284
0.23843  1.739660  3.384482
0.23935  1.771117  3.425092
0.24028  1.804532  3.465819
0.24122  1.840420  3.508864
0.24216  1.882015  3.553246
0.24311  1.926293  3.598292
0.24407  1.976721  3.642079
0.24503  2.029559  3.687898
0.24600  2.090443  3.735395
0.24698  2.158947  3.778660
0.24797  2.234016  3.821545
0.24897  2.317624  3.858150
0.24997  2.407168  3.889606
0.25098  2.501687  3.914301
0.25200  2.597946  3.928322
0.25303  2.694704  3.936520
0.25407  2.785460  3.940200
0.25511  2.884796  3.940506
0.25617  2.985082  3.937673
0.25723  3.090370  3.928795
0.25830  3.199494  3.908816
0.25938  3.309449  3.878352
0.26047  3.420985  3.838331
0.26157  3.529284  3.785432
0.26268  3.633991  3.722041
0.26380  3.732769  3.645636
0.26493  3.821879  3.557275
0.26606  3.897718  3.462517
0.26721  3.962368  3.362304
0.26837  4.014046  3.259192
0.26953  4.053994  3.156569
0.27071  4.081685  3.055918
0.27190  4.099432  2.957619
0.27310  4.108303  2.863260
0.27430  4.108853  2.774686
0.27552  4.102509  2.691458
0.27675  4.092426  2.614451
0.27799  4.077078  2.541556
0.27925  4.058372  2.476476
0.28051  4.037065  2.417125
0.28178  4.014228  2.363141
0.28307  3.992826  2.314309
0.28437  3.967560  2.270445
0.28568  3.944011  2.229971
0.28700  3.920410  2.193871
0.28834  3.897408  2.161124
0.28969  3.874460  2.131674
0.29105  3.852577  2.105040
0.29242  3.832138  2.081345
0.29380  3.812050  2.060011
0.29520  3.793727  2.040504
0.29662  3.776442  2.023405
0.29804  3.760599  2.008019
0.29948  3.744716  1.994820
0.30093  3.731100  1.982437
0.30240  3.718666  1.971504
0.30389  3.705647  1.962145
0.30538  3.694635  1.953999
0.30689  3.684108  1.947073
0.30842  3.675167  1.941360
0.30996  3.666885  1.936345
0.31152  3.659731  1.931371
0.31309  3.653219  1.928161
0.31468  3.647968  1.926199
0.31629  3.643331  1.924647
0.31791  3.640045  1.923784
0.31955  3.638052  1.924068
0.32121  3.636811  1.924879
0.32288  3.636872  1.926415
0.32457  3.637432  1.928682
0.32628  3.639568  1.931454
0.32800  3.642576  1.935295
0.32975  3.646958  1.939676
0.33151  3.652994  1.944635
0.33329  3.660016  1.951267
0.33510  3.668083  1.958073
0.33692  3.677758  1.965790
0.33876  3.689640  1.973946
0.34062  3.702431  1.983533
0.34250  3.717976  1.993710
0.34440  3.736291  2.004971
0.34633  3.757855  2.017308
0.34827  3.782631  2.030452
0.35024  3.811192  2.044741
0.35223  3.846142  2.058400
0.35424  3.886539  2.071567
0.35628  3.934253  2.081461
0.35834  3.988594  2.085865
0.36042  4.049556  2.081643
0.36253  4.111052  2.067517
0.36466  4.172204  2.042433
0.36682  4.227379  2.009571
0.36900  4.275998  1.973310
0.37121  4.320066  1.936085
0.37345  4.360104  1.901501
0.37571  4.400993  1.869956
0.37800  4.445465  1.841130
0.38032  4.498559  1.811185
0.38267  4.562538  1.773547
0.38505  4.634349  1.719447
0.38745  4.705961  1.640312
0.38989  4.762130  1.540592
0.39236  4.795315  1.428522
0.39486  4.806362  1.315722
0.39739  4.798338  1.212186
0.39995  4.778094  1.119066
0.40255  4.749791  1.035036
0.40518  4.716352  0.961298
0.40785  4.680458  0.895245
0.41055  4.642863  0.837424
0.41328  4.605280  0.785606
0.41606  4.567953  0.739533
0.41887  4.532439  0.696937
0.42172  4.497346  0.660963
0.42461  4.463525  0.626352
0.42754  4.430228  0.595908
0.43050  4.398126  0.567083
0.43351  4.366824  0.540099
0.43657  4.336887  0.515632
0.43966  4.307960  0.493881
0.44280  4.280432  0.471545
0.44599  4.253535  0.451723
0.44922  4.227008  0.433313
0.45250  4.201676  0.417318
0.45583  4.177004  0.399590
0.45920  4.153416  0.385275
0.46263  4.130499  0.372416
0.46611  4.108323  0.357307
0.46964  4.087125  0.348896
0.47323  4.066264  0.332826
0.47687  4.047256  0.318692
0.48056  4.028045  0.304941
0.48432  4.009487  0.296423
0.48813  3.991677  0.284372
0.49200  3.973763  0.274105
0.49594  3.956508  0.267601
0.49994  3.940473  0.256173
0.50400  3.924878  0.245987
0.50814  3.909804  0.236757
0.51234  3.895361  0.227045
0.51660  3.881162  0.218987
0.52095  3.868170  0.210979
0.52536  3.855623  0.204289
0.52985  3.844301  0.196625
0.53442  3.832858  0.187625
0.53907  3.820129  0.177609
0.54379  3.805492  0.166953
0.54861  3.790462  0.157249
0.55351  3.775031  0.148404
0.55849  3.760373  0.141217
0.56357  3.746974  0.133870
0.56874  3.733730  0.126577
0.57401  3.720988  0.119554
0.57937  3.708638  0.112857
0.58484  3.697323  0.106348
0.59041  3.686253  0.099665
0.59608  3.676857  0.093585
0.60187  3.668006  0.085656
0.60777  3.659189  0.079508
0.61379  3.656784  0.075072
0.61993  3.665517  0.057170
0.62619  3.656136  0.020582
0.63258  3.623873  0.003863
0.63910  3.596926  0.001617
0.64576  3.575618  0.002861
0.65255  3.559263  0.002605
0.65950  3.541620  0.000731
0.66659  3.524400  0.000016
0.67383  3.507944  0.000000
0.68124  3.492734  0.000000
0.68881  3.479325  0.000000
0.69655  3.466099  0.000000
0.70446  3.453755  0.000000
0.71256  3.442252  0.000000
0.72084  3.431603  0.000000
0.72932  3.421850  0.000000
0.73801  3.411370  0.000000
0.74690  3.401921  0.000000
0.75601  3.394291  0.000000
0.76534  3.385769  0.000000
0.77491  3.378119  0.000000
0.78472  3.370346  0.000000
0.79478  3.362429  0.000000
0.80510  3.354764  0.000000
0.81569  3.347336  0.000000
0.82657  3.340659  0.000000
