; From SOPRA S.A. http://www.sopra-sa.com/indices.htm
; Filename    Symbol               Range (nm)     Description
; CDSE        CdSe                190     2479    Cadmium Selenide
; lambda/um       n         k
0.19075  1.414030  0.886233
0.19223  1.418727  0.883381
0.19373  1.421029  0.880177
0.19525  1.421527  0.876859
0.19680  1.420807  0.873667
0.19838  1.419505  0.870837
0.19998  1.418783  0.868597
0.20160  1.418548  0.867192
0.20325  1.418172  0.866927
0.20493  1.417801  0.868102
0.20664  1.417187  0.870888
0.20838  1.415766  0.875379
0.21014  1.412935  0.881882
0.21194  1.408060  0.890706
0.21377  1.402873  0.900887
0.21563  1.398469  0.911703
0.21752  1.395417  0.923479
0.21944  1.394670  0.937075
0.22140  1.395452  0.958045
0.22340  1.396522  0.974059
0.22543  1.397109  0.989689
0.22750  1.398348  1.152672
0.22960  1.645144  1.224262
0.23175  1.947238  1.500378
0.23393  1.971966  1.511216
0.23616  1.965173  1.488176
0.23843  1.967872  1.481156
0.24075  1.967646  1.479701
0.24311  1.972228  1.476848
0.24552  1.981546  1.500357
0.24797  2.002692  1.551679
0.25048  2.037255  1.603054
0.25303  2.098160  1.643231
0.25564  2.189276  1.659755
0.25830  2.273942  1.626325
0.26102  2.352480  1.573926
0.26380  2.410747  1.523937
0.26663  2.440368  1.476135
0.26953  2.444116  1.433873
0.27249  2.429407  1.398896
0.27552  2.424571  1.409267
0.27862  2.456759  1.445368
0.28178  2.532245  1.441875
0.28502  2.604915  1.389755
0.28834  2.624928  1.331652
0.29173  2.602713  1.305570
0.29520  2.612321  1.337202
0.29876  2.728134  1.378422
0.30240  2.823725  1.276195
0.30614  2.859909  1.177485
0.30996  2.870981  1.100948
0.31389  2.870670  1.029279
0.31791  2.862406  0.977102
0.32204  2.848827  0.936491
0.32628  2.834618  0.896711
0.33063  2.820806  0.864442
0.33510  2.806487  0.840506
0.33969  2.793668  0.815688
0.34440  2.783669  0.793027
0.34925  2.773836  0.775236
0.35424  2.762046  0.756717
0.35938  2.754750  0.743447
0.36466  2.746618  0.727326
0.37011  2.737745  0.709590
0.37571  2.729800  0.693796
0.38149  2.722928  0.679660
0.38745  2.716890  0.666238
0.39360  2.711691  0.653600
0.39995  2.707312  0.641896
0.40651  2.704473  0.630866
0.41328  2.703357  0.620050
0.42029  2.700838  0.609076
0.42754  2.696866  0.596914
0.43504  2.695098  0.583122
0.44280  2.695628  0.571707
0.45086  2.695163  0.559880
0.45920  2.694428  0.547435
0.46787  2.696902  0.536166
0.47687  2.701406  0.525747
0.48622  2.704421  0.514698
0.49594  2.706103  0.503320
0.50606  2.709212  0.493109
0.51660  2.714868  0.484650
0.52760  2.723960  0.479792
0.53907  2.739452  0.484062
0.55105  2.756000  0.484863
0.56357  2.764602  0.461713
0.57668  2.761068  0.437575
0.59041  2.755239  0.398551
0.60481  2.750138  0.346822
0.61993  2.744107  0.297370
0.63582  2.735217  0.261150
0.65255  2.732104  0.247869
0.67019  2.744775  0.246193
0.68881  2.778471  0.237699
0.70849  2.837757  0.207743
0.72932  2.829020  0.020391
0.75143  2.743256  0.004849
0.77491  2.691962  0.000567
0.79990  2.657455  0.000006
0.82657  2.634611  0.000006
0.85507  2.614889  0.000005
0.88561  2.596601  0.000005
0.91841  2.582177  0.000005
0.95373  2.568200  0.000004
0.99188  2.551986  0.000004
1.03321  2.538369  0.000004
1.07813  2.531476  0.000004
1.12714  2.526668  0.000004
1.18081  2.520860  0.000004
1.23985  2.512847  0.000004
1.30511  2.504388  0.000004
1.37761  2.496144  0.000004
1.45865  2.487983  0.000004
1.54981  2.478776  0.000004
1.65314  2.470211  0.000004
1.77122  2.465820  0.000004
1.90746  2.466223  0.000004
2.06642  2.466927  0.000005
2.25428  2.461519  0.000005
2.47970  2.455602  0.000005
