; From SOPRA S.A. http://www.sopra-sa.com/indices.htm
; Filename    Symbol               Range (nm)     Description
; CUO         CuO                 295     2479    Cupric Oxide
; lambda/um       n         k
0.29520  2.178582  1.583350
0.29876  2.179536  1.520446
0.30240  2.181104  1.461637
0.30614  2.183285  1.406746
0.30996  2.186078  1.355593
0.31389  2.189483  1.308000
0.31791  2.193499  1.263787
0.32204  2.198124  1.222775
0.32628  2.203358  1.184786
0.33063  2.209199  1.149639
0.33510  2.215647  1.117157
0.33969  2.222701  1.087160
0.34440  2.230360  1.059469
0.34925  2.238622  1.033905
0.35424  2.247487  1.010289
0.35938  2.256955  0.988441
0.36466  2.267023  0.968184
0.37011  2.277691  0.949337
0.37571  2.288959  0.931723
0.38149  2.300824  0.915161
0.38745  2.313287  0.899472
0.39360  2.326346  0.884478
0.39995  2.340000  0.870000
0.40651  2.354980  0.855138
0.41328  2.370428  0.840557
0.42029  2.386267  0.826153
0.42754  2.402421  0.811821
0.43504  2.418812  0.797457
0.44280  2.435363  0.782956
0.45086  2.452146  0.768197
0.45920  2.469921  0.752970
0.46787  2.487320  0.737331
0.47687  2.504071  0.721201
0.48622  2.519901  0.704498
0.49594  2.534539  0.687143
0.50606  2.545072  0.668975
0.51660  2.553058  0.649970
0.52760  2.561184  0.630135
0.53907  2.570285  0.609426
0.55105  2.581532  0.587870
0.56357  2.598019  0.565932
0.57668  2.616375  0.542613
0.59041  2.636239  0.517596
0.60481  2.654699  0.490007
0.61993  2.670943  0.459431
0.63582  2.693542  0.427495
0.65255  2.728491  0.394976
0.67019  2.786194  0.363100
0.68881  2.846607  0.329994
0.70849  2.902113  0.295697
0.72932  2.945621  0.259105
0.75143  2.970684  0.216871
0.77491  2.968789  0.162816
0.79990  2.940000  0.110000
0.82657  2.870161  0.065856
0.85507  2.800656  0.037472
0.88561  2.756436  0.030896
0.91841  2.719769  0.026297
0.95373  2.686682  0.019222
0.99188  2.655606  0.011468
1.03321  2.633018  0.005320
1.07813  2.616635  0.001204
1.12714  2.600242  0.000395
1.18081  2.584383  0.000188
1.23985  2.575135  0.000000
1.30511  2.569314  0.000000
1.37761  2.561531  0.000000
1.45865  2.559386  0.000000
1.54981  2.559227  0.000000
1.65314  2.556955  0.000000
1.77122  2.554123  0.000000
1.90746  2.551361  0.000000
2.06642  2.549300  0.000000
2.25428  2.548569  0.000000
2.47970  2.549798  0.000000
