; From SOPRA S.A. http://www.sopra-sa.com/indices.htm
; Filename    Symbol               Range (nm)     Description
; FESI2EPI    FeSi2               247     6199    Iron Silicide
; lambda/um       n         k
0.24797  2.019000  2.888000
0.25303  2.103000  2.912000
0.25830  2.217000  2.924000
0.26380  2.317000  2.934000
0.26953  2.426000  2.928000
0.27552  2.513000  2.911000
0.28178  2.627000  2.918000
0.28834  2.729000  2.874000
0.29520  2.811000  2.841000
0.30240  2.895000  2.802000
0.30996  2.973000  2.767000
0.31791  3.052000  2.718000
0.32628  3.120000  2.665000
0.33510  3.176000  2.600000
0.34440  3.207000  2.549000
0.35424  3.235000  2.506000
0.36466  3.258000  2.475000
0.37571  3.277000  2.450000
0.38745  3.295000  2.439000
0.39995  3.319000  2.439000
0.41328  3.352000  2.436000
0.42754  3.369000  2.450000
0.44280  3.401000  2.481000
0.45920  3.468000  2.519000
0.47687  3.536000  2.539000
0.49594  3.591000  2.563000
0.51660  3.646000  2.606000
0.53907  3.744000  2.669000
0.56357  3.863000  2.726000
0.59041  3.998000  2.775000
0.61993  4.191000  2.854000
0.65255  4.451000  2.834000
0.68881  4.691000  2.740000
0.72932  4.874000  2.618000
0.77491  5.033000  2.486000
0.82657  5.217000  2.324000
0.88561  5.378000  2.178000
0.95373  5.583000  2.021000
1.03321  5.792000  1.821000
1.12714  5.979000  1.569000
1.23985  6.273000  1.210000
1.37761  6.792000  0.258000
1.54981  6.420000  0.015000
1.77122  6.164000  0.000000
2.06642  5.983000  0.000000
2.47970  5.850000  0.000000
3.09963  5.758000  0.000000
4.13284  5.726000  0.000000
6.19926  5.706000  0.000000
