; From SOPRA S.A. http://www.sopra-sa.com/indices.htm
; Filename    Symbol               Range (nm)     Description
; FESI2EL1    FeSi2               137      275    Iron Silicide
; lambda/um       n         k
0.13776  0.628000  1.390000
0.13931  0.600000  1.410000
0.14089  0.569000  1.432000
0.14251  0.558000  1.460000
0.14417  0.560000  1.492000
0.14586  0.560000  1.522000
0.14760  0.562000  1.556000
0.14938  0.573000  1.596000
0.15120  0.584000  1.640000
0.15307  0.594000  1.685000
0.15498  0.604000  1.731000
0.15694  0.614000  1.775000
0.15896  0.633000  1.817000
0.16102  0.667000  1.858000
0.16314  0.704000  1.900000
0.16531  0.727000  1.942000
0.16755  0.735000  1.984000
0.16984  0.744000  2.028000
0.17220  0.761000  2.072000
0.17463  0.786000  2.115000
0.17712  0.813000  2.157000
0.17969  0.843000  2.199000
0.18233  0.876000  2.242000
0.18505  0.911000  2.287000
0.18786  0.949000  2.334000
0.19075  0.987000  2.381000
0.19373  1.023000  2.429000
0.19680  1.059000  2.477000
0.19998  1.102000  2.524000
0.20325  1.153000  2.573000
0.20664  1.212000  2.623000
0.21014  1.278000  2.676000
0.21377  1.347000  2.730000
0.21752  1.420000  2.783000
0.22140  1.499000  2.831000
0.22543  1.589000  2.874000
0.22960  1.690000  2.910000
0.23393  1.801000  2.938000
0.23843  1.917000  2.959000
0.24311  2.036000  2.975000
0.24797  2.157000  2.984000
0.25303  2.276000  2.977000
0.25830  2.386000  2.945000
0.26380  2.478000  2.892000
0.26953  2.542000  2.827000
0.27552  2.567000  2.760000
