; From SOPRA S.A. http://www.sopra-sa.com/indices.htm
; Filename    Symbol               Range (nm)     Description
; INPOX       OnPO                206      774    Indium Phosphide Oxide
; lambda/um       n         k
0.20664  1.537000  0.136700
0.21014  1.542000  0.124000
0.21377  1.545000  0.111800
0.21752  1.547000  0.100200
0.22140  1.548000  0.089290
0.22543  1.549000  0.079150
0.22960  1.549000  0.069760
0.23393  1.548000  0.061130
0.23843  1.546000  0.053230
0.24311  1.545000  0.046030
0.24797  1.543000  0.039510
0.25303  1.541000  0.033620
0.25830  1.538000  0.028330
0.26380  1.536000  0.023590
0.26953  1.534000  0.019350
0.27552  1.531000  0.015590
0.28178  1.529000  0.012260
0.28834  1.527000  0.009336
0.29520  1.524000  0.006773
0.30240  1.522000  0.004545
0.30996  1.520000  0.002624
0.31791  1.518000  0.000983
0.32628  1.516000  0.000000
0.33510  1.514000  0.000000
0.34440  1.512000  0.000000
0.35424  1.510000  0.000000
0.36466  1.509000  0.000000
0.37571  1.507000  0.000000
0.38745  1.506000  0.000000
0.39995  1.504000  0.000000
0.41328  1.503000  0.000000
0.42754  1.502000  0.000000
0.44280  1.501000  0.000000
0.45920  1.500000  0.000000
0.47687  1.499000  0.000000
0.49594  1.498000  0.000000
0.51660  1.497000  0.000000
0.53907  1.496000  0.000000
0.56357  1.496000  0.000000
0.59041  1.495000  0.000000
0.61993  1.495000  0.000000
0.65255  1.494000  0.000000
0.68881  1.494000  0.000000
0.72932  1.493000  0.000000
0.77491  1.493000  0.000000
