; From SOPRA S.A. http://www.sopra-sa.com/indices.htm
; Filename    Symbol               Range (nm)     Description
; MOSI2-B     MoSi2               281     1239    Molybdenum Silicide (perpendicular to c axis)
; lambda/um       n         k
0.28178  2.557000  3.169000
0.28834  2.282000  3.059000
0.29520  2.248000  3.016000
0.30240  2.254000  3.016000
0.30996  2.278000  3.041000
0.31791  2.312000  3.079000
0.32628  2.355000  3.122000
0.33510  2.401000  3.164000
0.34440  2.468000  3.206000
0.35424  2.540000  3.247000
0.36466  2.626000  3.292000
0.37571  2.727000  3.343000
0.38745  2.848000  3.402000
0.39995  2.991000  3.469000
0.41328  3.161000  3.541000
0.42754  3.358000  3.567000
0.44280  3.583000  3.584000
0.45920  3.825000  3.565000
0.47687  4.071000  3.499000
0.49594  4.298000  3.389000
0.51660  4.485000  3.249000
0.53907  4.621000  3.091000
0.56357  4.707000  2.932000
0.59041  4.755000  2.781000
0.61993  4.781000  2.647000
0.65255  4.800000  2.533000
0.68881  4.822000  2.437000
0.72932  4.854000  2.353000
0.77491  4.898000  2.275000
0.82657  4.953000  2.195000
0.88561  5.016000  2.104000
0.95373  5.082000  2.000000
1.03321  5.145000  1.881000
1.12714  5.192000  1.755000
1.23985  5.212000  1.634000
