; From SOPRA S.A. http://www.sopra-sa.com/indices.htm
; Filename    Symbol               Range (nm)     Description
; PBSE        PbSe                206     1239    Lead Selenide
; lambda/um       n         k
0.20664  0.640000  0.860000
0.20838  0.634300  0.868627
0.21014  0.628600  0.878630
0.21194  0.622900  0.889939
0.21377  0.617200  0.902487
0.21563  0.611500  0.916204
0.21752  0.605800  0.931022
0.21944  0.600100  0.946872
0.22140  0.594400  0.963687
0.22340  0.588701  0.981397
0.22543  0.583001  0.999933
0.22750  0.577003  1.019824
0.22960  0.570740  1.040933
0.23175  0.564680  1.062260
0.23393  0.558958  1.083460
0.23616  0.553714  1.104192
0.23843  0.549216  1.123844
0.24075  0.545929  1.141421
0.24311  0.543364  1.157832
0.24552  0.541521  1.173008
0.24797  0.540400  1.186881
0.25048  0.540001  1.199382
0.25303  0.540614  1.206088
0.25564  0.541901  1.212011
0.25830  0.543777  1.218359
0.26102  0.546172  1.226094
0.26380  0.549018  1.236175
0.26663  0.551821  1.251053
0.26953  0.554833  1.270568
0.27249  0.558321  1.294501
0.27552  0.562355  1.323333
0.27862  0.567002  1.357544
0.28178  0.572729  1.400794
0.28502  0.579663  1.454039
0.28834  0.587125  1.511763
0.29173  0.594977  1.572802
0.29520  0.603081  1.635988
0.29876  0.611201  1.699556
0.30240  0.618801  1.759951
0.30614  0.626401  1.819948
0.30996  0.634001  1.879205
0.31389  0.641601  1.937379
0.31791  0.649201  1.994127
0.32204  0.654049  2.043878
0.32628  0.659178  2.092051
0.33063  0.665607  2.140238
0.33510  0.674021  2.189400
0.33969  0.685106  2.240497
0.34440  0.700732  2.297446
0.34925  0.720837  2.359342
0.35424  0.745000  2.424375
0.35938  0.773495  2.492476
0.36466  0.806596  2.563577
0.37011  0.844810  2.640745
0.37571  0.888522  2.725414
0.38149  0.937477  2.810344
0.38745  0.991810  2.893613
0.39360  1.051659  2.973301
0.39995  1.117261  3.046722
0.40651  1.189456  3.106559
0.41328  1.267352  3.158797
0.42029  1.350880  3.203092
0.42754  1.439971  3.239102
0.43504  1.534557  3.266485
0.44280  1.636131  3.279961
0.45086  1.743016  3.284270
0.45920  1.854431  3.281323
0.46787  1.969897  3.272080
0.47687  2.088934  3.257502
0.48622  2.210696  3.239997
0.49594  2.334881  3.219819
0.50606  2.461412  3.196320
0.51660  2.589946  3.169912
0.52760  2.720141  3.141005
0.53907  2.851155  3.110012
0.55105  2.982187  3.077344
0.56357  3.114303  3.043412
0.57668  3.247501  3.008629
0.59041  3.381783  2.973404
0.60481  3.517763  2.938152
0.61993  3.665434  2.903282
0.63582  3.811516  2.869205
0.65255  3.953472  2.836335
0.67019  4.088765  2.805082
0.68881  4.214857  2.775857
0.70849  4.321146  2.774974
0.72932  4.412748  2.778260
0.75143  4.491586  2.771799
0.77491  4.557384  2.748732
0.79990  4.609869  2.702199
0.82657  4.641832  2.585407
0.85507  4.655201  2.404171
0.88561  4.658830  2.204226
0.91841  4.655325  1.995315
0.95373  4.647293  1.787177
0.99188  4.637341  1.589551
1.03321  4.628074  1.412177
1.07813  4.622100  1.264795
1.12714  4.622025  1.157146
1.18081  4.630457  1.098967
1.23985  4.650000  1.100000
