; From SOPRA S.A. http://www.sopra-sa.com/indices.htm
; Filename    Symbol               Range (nm)     Description
; PD          Pd                  190     2479    Palladium
; lambda/um       n         k
0.19075  0.860000  1.440000
0.19223  0.860125  1.451825
0.19373  0.859791  1.464529
0.19525  0.859225  1.478066
0.19680  0.858657  1.492398
0.19838  0.858313  1.507478
0.19998  0.858421  1.523261
0.20160  0.859211  1.539707
0.20325  0.860912  1.556772
0.20493  0.863749  1.574412
0.20664  0.867952  1.592583
0.20838  0.873749  1.611243
0.21014  0.881368  1.630348
0.21194  0.890000  1.650000
0.21377  0.898834  1.670300
0.21563  0.907061  1.691348
0.21752  0.912512  1.713744
0.21944  0.916037  1.736981
0.22140  0.920000  1.760000
0.22340  0.927097  1.781156
0.22543  0.935963  1.801802
0.22750  0.947027  1.822640
0.22960  0.959623  1.843555
0.23175  0.972195  1.864033
0.23393  0.983174  1.883772
0.23616  0.994888  1.902695
0.23843  1.009475  1.920437
0.24075  1.026261  1.937142
0.24311  1.043254  1.953114
0.24552  1.059154  1.968473
0.24797  1.074247  1.983791
0.25048  1.088259  1.999843
0.25303  1.100950  2.016525
0.25564  1.111815  2.033492
0.25830  1.120193  2.050719
0.26102  1.128302  2.066947
0.26380  1.138587  2.079949
0.26663  1.150213  2.091251
0.26953  1.162977  2.102228
0.27249  1.177215  2.113892
0.27552  1.188377  2.127095
0.27862  1.189116  2.144085
0.28178  1.184484  2.163515
0.28502  1.179500  2.183935
0.28834  1.178177  2.204134
0.29173  1.179386  2.225536
0.29520  1.185902  2.249582
0.29876  1.194739  2.274830
0.30240  1.202286  2.299036
0.30614  1.206782  2.321571
0.30996  1.209622  2.345070
0.31389  1.210985  2.372288
0.31791  1.210831  2.401746
0.32204  1.208071  2.432239
0.32628  1.203143  2.463092
0.33063  1.200141  2.493892
0.33510  1.205492  2.523045
0.33969  1.214491  2.552083
0.34440  1.222118  2.582824
0.34925  1.226471  2.615891
0.35424  1.230000  2.650000
0.35938  1.233242  2.683969
0.36466  1.237083  2.718694
0.37011  1.242453  2.754660
0.37571  1.250032  2.791976
0.38149  1.260000  2.830000
0.38745  1.274589  2.867824
0.39360  1.290495  2.906372
0.39995  1.304579  2.945794
0.40651  1.316247  2.986595
0.41328  1.330000  3.030000
0.42029  1.348044  3.076908
0.42754  1.363975  3.122114
0.43504  1.378884  3.166867
0.44280  1.393861  3.212413
0.45086  1.410000  3.260000
0.45920  1.429733  3.312518
0.46787  1.451105  3.367486
0.47687  1.474894  3.424637
0.48622  1.499026  3.482723
0.49594  1.520000  3.540000
0.50606  1.535173  3.595024
0.51660  1.558918  3.654907
0.52760  1.587592  3.718661
0.53907  1.617553  3.785291
0.55105  1.643470  3.853351
0.56357  1.658587  3.921010
0.57668  1.673256  3.991050
0.59041  1.696680  4.066112
0.60481  1.726494  4.145302
0.61993  1.754270  4.225546
0.63582  1.773848  4.304184
0.65255  1.792338  4.385938
0.67019  1.813076  4.475248
0.68881  1.837469  4.571035
0.70849  1.866608  4.669277
0.72932  1.902401  4.767202
0.75143  1.941803  4.869014
0.77491  1.974319  4.978076
0.79990  2.014081  5.093524
0.82657  2.082121  5.214392
0.85507  2.200538  5.340015
0.88561  2.311263  5.472562
0.91841  2.350159  5.612120
0.95373  2.349565  5.761533
0.99188  2.348156  5.923958
1.03321  2.400106  6.103319
1.07813  2.466173  6.299675
1.12714  2.540223  6.514457
1.18081  2.616123  6.749094
1.23985  2.679111  7.001390
1.30511  2.729300  7.275399
1.37761  2.787078  7.583685
1.45865  2.860724  7.936326
1.54981  2.949509  8.332067
1.65314  3.001193  8.831679
1.77122  3.038068  9.410989
1.90746  3.261611  9.836403
2.06642  3.800000  9.960000
2.25428  3.945625  10.636880
2.47970  4.100000  11.440000
