; From SOPRA S.A. http://www.sopra-sa.com/indices.htm
; Filename    Symbol               Range (nm)     Description
; SF11        SF11                210     1239    Glass SF11
; lambda/um       n         k
0.21014  3.217526  0.000000
0.21377  3.086202  0.000000
0.21752  2.964605  0.000000
0.22140  2.852340  0.000000
0.22543  2.748998  0.000000
0.22960  2.654156  0.000000
0.23393  2.567378  0.000000
0.23843  2.488217  0.000000
0.24311  2.416217  0.000000
0.24797  2.350917  0.000000
0.25303  2.291853  0.000000
0.25830  2.238563  0.000000
0.26380  2.190591  0.000000
0.26953  2.147491  0.000000
0.27552  2.108832  0.000000
0.28178  2.074199  0.000000
0.28834  2.043198  0.000000
0.29520  2.015460  0.000000
0.30240  1.990637  0.000000
0.30996  1.968412  0.000000
0.31791  1.948489  0.000000
0.32628  1.930604  0.000000
0.33510  1.914514  0.000000
0.34440  1.900005  0.000000
0.35424  1.886884  0.000000
0.36466  1.874982  0.000000
0.37571  1.864151  0.000000
0.38745  1.854259  0.000000
0.39995  1.845196  0.000000
0.41328  1.836862  0.000000
0.42754  1.829176  0.000000
0.44280  1.822065  0.000000
0.45920  1.815469  0.000000
0.47687  1.809336  0.000000
0.49594  1.803622  0.000000
0.51660  1.798290  0.000000
0.53907  1.793309  0.000000
0.56357  1.788650  0.000000
0.59041  1.784290  0.000000
0.61993  1.780207  0.000000
0.65255  1.776383  0.000000
0.68881  1.772798  0.000000
0.72932  1.769436  0.000000
0.77491  1.766276  0.000000
0.82657  1.763299  0.000000
0.88561  1.760483  0.000000
0.95373  1.757798  0.000000
1.03321  1.755209  0.000000
1.12714  1.752667  0.000000
1.23985  1.750102  0.000000
