; From SOPRA S.A. http://www.sopra-sa.com/indices.htm
; Filename    Symbol               Range (nm)     Description
; SIAM2       a-Si                206     1239    Amorphous Silicon
; lambda/um       n         k
0.20664  1.053503  2.813504
0.21014  1.115901  2.833001
0.21377  1.176900  2.859200
0.21752  1.238600  2.914500
0.22140  1.303100  2.981300
0.22543  1.372500  3.042000
0.22960  1.445300  3.103100
0.23393  1.527900  3.164500
0.23843  1.616200  3.226800
0.24311  1.712200  3.288100
0.24797  1.814400  3.345500
0.25303  1.927800  3.405400
0.25830  2.048700  3.460800
0.26380  2.181900  3.512900
0.26953  2.324500  3.559900
0.27552  2.479700  3.601200
0.28178  2.645300  3.632900
0.28834  2.825500  3.654200
0.29520  3.017800  3.661600
0.30240  3.219900  3.650700
0.30996  3.431100  3.616900
0.31791  3.539300  3.591100
0.32628  3.868100  3.475900
0.33510  4.081800  3.358800
0.34440  4.283600  3.217000
0.35424  4.469700  3.046100
0.36466  4.630000  2.854200
0.37571  4.766400  2.643500
0.38745  4.872800  2.423700
0.39995  4.948200  2.198800
0.41328  4.997600  1.973900
0.42754  5.018500  1.756500
0.44280  5.018400  1.547300
0.45920  4.998800  1.348300
0.47687  4.962300  1.163800
0.49594  4.913500  0.991100
0.51660  4.854000  0.831300
0.53907  4.783300  0.685700
0.56357  4.707700  0.550200
0.59041  4.628700  0.418000
0.61993  4.548900  0.286900
0.65255  4.466000  0.159000
0.68881  4.395700  0.043200
0.72932  4.334700  0.005800
0.77491  4.277900  0.000000
0.82657  4.226100  0.000000
0.88561  4.186000  0.000000
0.95373  4.165000  0.000000
1.03321  4.110000  0.000000
1.12714  4.094000  0.000000
1.23985  4.054000  0.000000
