; From SOPRA S.A. http://www.sopra-sa.com/indices.htm
; Filename    Symbol               Range (nm)     Description
; SIPOLY50
; lambda/um       n         k
0.19075  0.905764  2.368898
0.19223  0.920753  2.395848
0.19373  0.936644  2.422668
0.19525  0.953358  2.449291
0.19680  0.970620  2.474919
0.19838  0.988056  2.498380
0.19998  1.005897  2.520727
0.20160  1.024104  2.542019
0.20325  1.043099  2.564068
0.20493  1.064056  2.590718
0.20664  1.084669  2.615937
0.20838  1.101256  2.631263
0.21014  1.119118  2.647811
0.21194  1.141635  2.672529
0.21377  1.167578  2.702098
0.21563  1.192309  2.730595
0.21752  1.215239  2.758409
0.21944  1.246663  2.793051
0.22140  1.274861  2.827646
0.22340  1.309326  2.863252
0.22543  1.348570  2.898690
0.22750  1.393926  2.931916
0.22960  1.442385  2.955643
0.23175  1.490268  2.968529
0.23393  1.526772  2.975151
0.23616  1.549487  2.984186
0.23843  1.566441  3.002430
0.24075  1.580650  3.029968
0.24311  1.595461  3.065352
0.24552  1.613979  3.107912
0.24797  1.635378  3.156924
0.25048  1.661855  3.211157
0.25303  1.691687  3.270521
0.25564  1.727790  3.334711
0.25830  1.769432  3.404803
0.26102  1.817670  3.482557
0.26380  1.876249  3.570271
0.26663  1.948952  3.670130
0.26953  2.044866  3.779248
0.27249  2.170328  3.887622
0.27552  2.326709  3.982857
0.27862  2.565898  4.080441
0.28178  2.704606  4.116292
0.28502  2.930869  4.161420
0.28834  3.221291  4.151909
0.29173  3.499000  4.011950
0.29520  3.668524  3.815088
0.29876  3.758672  3.647716
0.30240  3.816475  3.516247
0.30614  3.860534  3.414283
0.30996  3.901920  3.331366
0.31389  3.947801  3.262405
0.31791  3.996686  3.203566
0.32204  4.051731  3.150864
0.32628  4.112161  3.102754
0.33063  4.176583  3.057858
0.33510  4.245181  3.015683
0.33969  4.318122  2.977937
0.34440  4.401516  2.943994
0.34925  4.502136  2.919305
0.35424  4.643647  2.904975
0.35938  4.869468  2.873557
0.36466  5.166942  2.702470
0.37011  5.355532  2.349994
0.37571  5.306515  2.036510
0.38149  5.241203  1.725527
0.38745  5.155705  1.570449
0.39360  5.025321  1.428218
0.39995  4.957361  1.320797
0.40651  4.886012  1.243846
0.41328  4.824645  1.162170
0.42029  4.770483  1.090997
0.42754  4.721896  1.026684
0.43504  4.674927  0.964511
0.44280  4.631222  0.905226
0.45086  4.590143  0.847347
0.45920  4.551247  0.790924
0.46787  4.513940  0.735590
0.47687  4.478558  0.683644
0.48622  4.444234  0.635840
0.49594  4.410735  0.591175
0.50606  4.377538  0.549408
0.51660  4.344169  0.509490
0.52760  4.310380  0.470185
0.53907  4.275930  0.431725
0.55105  4.242359  0.395197
0.56357  4.203609  0.357824
0.57668  4.159888  0.319940
0.59041  4.124890  0.289236
0.60481  4.096733  0.264280
0.61993  4.068300  0.238664
0.63582  4.039845  0.213003
0.65255  4.008588  0.187446
0.67019  3.975257  0.162257
0.68881  3.942903  0.140388
0.70849  3.911871  0.121407
0.72932  3.880975  0.103639
0.75143  3.849568  0.087103
0.77491  3.821396  0.071236
0.79990  3.795389  0.055800
0.82657  3.765599  0.042933
0.85507  3.733245  0.033537
0.88561  3.700446  0.021934
0.91841  3.669469  0.007938
0.95373  3.641182  0.001147
0.99188  3.614338  0.001124
1.03321  3.592569  0.001107
1.07813  3.574493  0.001092
1.12714  3.558941  0.000000
1.18081  3.546163  0.001069
1.23985  3.530491  0.001056
1.30511  3.512214  0.000000
1.37761  3.498680  0.000000
1.45865  3.489795  0.000000
1.54981  3.478205  0.000000
1.65314  3.465898  0.000000
1.77122  3.454748  0.000000
1.90746  3.446664  0.000000
2.06642  3.443549  0.000000
2.25428  3.448532  0.000000
2.47970  3.461360  0.000000
