; From SOPRA S.A. http://www.sopra-sa.com/indices.htm
; Filename    Symbol               Range (nm)     Description
; SIPOLY60
; lambda/um       n         k
0.19075  0.920294  2.303749
0.19223  0.934155  2.329840
0.19373  0.948936  2.355833
0.19525  0.964573  2.381672
0.19680  0.980845  2.406731
0.19838  0.997445  2.430083
0.19998  1.014568  2.452560
0.20160  1.032182  2.474208
0.20325  1.050636  2.496457
0.20493  1.070884  2.522341
0.20664  1.091059  2.547104
0.20838  1.108188  2.564069
0.21014  1.126543  2.581997
0.21194  1.148850  2.606370
0.21377  1.174110  2.634572
0.21563  1.198596  2.661965
0.21752  1.221888  2.688784
0.21944  1.252188  2.720950
0.22140  1.280060  2.753181
0.22340  1.313042  2.786211
0.22543  1.350000  2.819343
0.22750  1.391985  2.850929
0.22960  1.436547  2.874897
0.23175  1.480800  2.890211
0.23393  1.516300  2.900740
0.23616  1.541154  2.913296
0.23843  1.561760  2.933138
0.24075  1.580490  2.960334
0.24311  1.599940  2.993667
0.24552  1.622638  3.032596
0.24797  1.647786  3.076546
0.25048  1.677237  3.124516
0.25303  1.709741  3.176444
0.25564  1.747622  3.232021
0.25830  1.790733  3.292187
0.26102  1.839835  3.358242
0.26380  1.897876  3.431851
0.26663  1.967857  3.514594
0.26953  2.056396  3.603667
0.27249  2.168153  3.691056
0.27552  2.303840  3.767116
0.27862  2.503463  3.843265
0.28178  2.624470  3.873352
0.28502  2.812989  3.909719
0.28834  3.049991  3.904424
0.29173  3.277752  3.800898
0.29520  3.425874  3.653928
0.29876  3.514882  3.527631
0.30240  3.579352  3.427218
0.30614  3.633143  3.348305
0.30996  3.684798  3.282318
0.31389  3.739851  3.225814
0.31791  3.797278  3.176023
0.32204  3.859628  3.129915
0.32628  3.925763  3.087177
0.33063  3.994761  3.046446
0.33510  4.066876  3.007133
0.33969  4.142107  2.970597
0.34440  4.226259  2.935283
0.34925  4.324165  2.905818
0.35424  4.454119  2.883589
0.35938  4.650063  2.847544
0.36466  4.901746  2.703572
0.37011  5.071364  2.416628
0.37571  5.053989  2.152607
0.38149  5.022049  1.887736
0.38745  4.968226  1.743924
0.39360  4.876569  1.608161
0.39995  4.832923  1.501698
0.40651  4.784965  1.419561
0.41328  4.743064  1.334015
0.42029  4.705028  1.257259
0.42754  4.670134  1.186222
0.43504  4.635387  1.117047
0.44280  4.602530  1.050575
0.45086  4.571109  0.985683
0.45920  4.540761  0.922258
0.46787  4.510999  0.860010
0.47687  4.482378  0.801342
0.48622  4.454097  0.746778
0.49594  4.425928  0.695362
0.50606  4.397370  0.646828
0.51660  4.367870  0.600248
0.52760  4.337163  0.554575
0.53907  4.305031  0.509855
0.55105  4.273397  0.467345
0.56357  4.235030  0.423544
0.57668  4.190207  0.378643
0.59041  4.155379  0.342272
0.60481  4.128345  0.312913
0.61993  4.100625  0.282725
0.63582  4.072583  0.252469
0.65255  4.040810  0.222248
0.67019  4.006137  0.192319
0.68881  3.972251  0.166310
0.70849  3.939551  0.143732
0.72932  3.906715  0.122582
0.75143  3.872971  0.102944
0.77491  3.843062  0.084107
0.79990  3.816006  0.065797
0.82657  3.784431  0.050532
0.85507  3.749806  0.039391
0.88561  3.714327  0.025548
0.91841  3.680181  0.008904
0.95373  3.648934  0.001153
0.99188  3.619466  0.001129
1.03321  3.596053  0.000000
1.07813  3.577093  0.000000
1.12714  3.561152  0.000000
1.18081  3.548555  0.000000
1.23985  3.532392  0.001058
1.30511  3.512896  0.000000
1.37761  3.498944  0.000000
1.45865  3.490462  0.000000
1.54981  3.478565  0.000000
1.65314  3.465594  0.000000
1.77122  3.453799  0.000000
1.90746  3.445456  0.000000
2.06642  3.442839  0.000000
2.25428  3.449200  0.000000
2.47970  3.465085  0.000000
