; From SOPRA S.A. http://www.sopra-sa.com/indices.htm
; Filename    Symbol               Range (nm)     Description
; SIPOLY90
; lambda/um       n         k
0.19075  0.959768  2.111114
0.19223  0.970339  2.134822
0.19373  0.981886  2.158509
0.19525  0.994395  2.182163
0.19680  1.007806  2.205634
0.19838  1.022037  2.228706
0.19998  1.037143  2.251574
0.20160  1.053121  2.274249
0.20325  1.070067  2.297070
0.20493  1.088240  2.320756
0.20664  1.107144  2.344185
0.20838  1.126004  2.365778
0.21014  1.145928  2.387596
0.21194  1.167621  2.410938
0.21377  1.190820  2.435187
0.21563  1.214535  2.459352
0.21752  1.238814  2.483211
0.21944  1.265686  2.508256
0.22140  1.292445  2.533628
0.22340  1.320959  2.559290
0.22543  1.351170  2.585897
0.22750  1.383360  2.612957
0.22960  1.416765  2.637813
0.23175  1.450755  2.660249
0.23393  1.483590  2.681993
0.23616  1.514796  2.704515
0.23843  1.546055  2.728715
0.24075  1.577888  2.754574
0.24311  1.610689  2.781559
0.24552  1.645274  2.809529
0.24797  1.680895  2.838345
0.25048  1.718391  2.867743
0.25303  1.757851  2.897716
0.25564  1.799854  2.928050
0.25830  1.845904  2.959269
0.26102  1.895807  2.991448
0.26380  1.950096  3.024683
0.26663  2.009439  3.059179
0.26953  2.073671  3.093134
0.27249  2.143616  3.124655
0.27552  2.219389  3.151652
0.27862  2.309485  3.175918
0.28178  2.382471  3.192428
0.28502  2.470591  3.209144
0.28834  2.568729  3.217293
0.29173  2.666572  3.206836
0.29520  2.754375  3.187530
0.29876  2.834310  3.169329
0.30240  2.911039  3.153259
0.30614  2.986676  3.138906
0.30996  3.063067  3.121656
0.31389  3.141025  3.101799
0.31791  3.220511  3.079269
0.32204  3.302145  3.053418
0.32628  3.383421  3.027234
0.33063  3.464690  2.999455
0.33510  3.546365  2.969224
0.33969  3.627965  2.936873
0.34440  3.714533  2.898211
0.34925  3.805501  2.855329
0.35424  3.903994  2.809885
0.35938  4.017356  2.757665
0.36466  4.138902  2.681579
0.37011  4.242054  2.570422
0.37571  4.298674  2.453485
0.38149  4.346780  2.331112
0.38745  4.381898  2.231288
0.39360  4.403590  2.127778
0.39995  4.433577  2.031482
0.40651  4.458839  1.939791
0.41328  4.477919  1.846849
0.42029  4.490976  1.756096
0.42754  4.499792  1.666598
0.43504  4.504076  1.577556
0.44280  4.505831  1.490247
0.45086  4.505158  1.404744
0.45920  4.501983  1.320488
0.46787  4.496156  1.237526
0.47687  4.488916  1.158644
0.48622  4.479717  1.083646
0.49594  4.468355  1.011771
0.50606  4.454412  0.942668
0.51660  4.437083  0.875821
0.52760  4.416067  0.810774
0.53907  4.391251  0.746980
0.55105  4.365729  0.686255
0.56357  4.328710  0.622856
0.57668  4.280721  0.556554
0.59041  4.246552  0.502953
0.60481  4.223042  0.460222
0.61993  4.197586  0.416158
0.63582  4.170880  0.371979
0.65255  4.137626  0.327617
0.67019  4.098963  0.283279
0.68881  4.060498  0.244694
0.70849  4.022797  0.211194
0.72932  3.984126  0.179804
0.75143  3.943354  0.150782
0.77491  3.908224  0.122975
0.79990  3.878025  0.095976
0.82657  3.841072  0.073509
0.85507  3.799610  0.057052
0.88561  3.756060  0.036444
0.91841  3.712375  0.011574
0.95373  3.672226  0.000000
0.99188  3.634863  0.000000
1.03321  3.606511  0.000000
1.07813  3.584897  0.001100
1.12714  3.567787  0.000000
1.18081  3.555732  0.000000
1.23985  3.538097  0.000000
1.30511  3.514943  0.000000
1.37761  3.499736  0.000000
1.45865  3.492459  0.000000
1.54981  3.479641  0.000000
1.65314  3.464680  0.000000
1.77122  3.450949  0.000993
1.90746  3.441833  0.000000
2.06642  3.440709  0.000000
2.25428  3.451206  0.000000
2.47970  3.476269  0.000000
