; From SOPRA S.A. http://www.sopra-sa.com/indices.htm
; Filename    Symbol               Range (nm)     Description
; SIPOLY40
; lambda/um       n         k
0.19075  0.890839  2.434469
0.19223  0.906971  2.462292
0.19373  0.923986  2.489954
0.19525  0.941788  2.517374
0.19680  0.960054  2.543581
0.19838  0.978339  2.567153
0.19998  0.996911  2.589366
0.20160  1.015723  2.610296
0.20325  1.035269  2.632139
0.20493  1.056941  2.659563
0.20664  1.077996  2.685244
0.20838  1.094044  2.698899
0.21014  1.111415  2.714042
0.21194  1.134145  2.739104
0.21377  1.160773  2.770058
0.21563  1.185745  2.799669
0.21752  1.208304  2.828482
0.21944  1.240853  2.865633
0.22140  1.269368  2.902619
0.22340  1.305322  2.940837
0.22543  1.346872  2.978618
0.22750  1.395637  3.013516
0.22960  1.448048  3.037009
0.23175  1.499619  3.047441
0.23393  1.537150  3.050101
0.23616  1.557712  3.055559
0.23843  1.570977  3.072163
0.24075  1.580607  3.100021
0.24311  1.590714  3.137450
0.24552  1.604982  3.183651
0.24797  1.622552  3.237756
0.25048  1.645970  3.298301
0.25303  1.673037  3.365170
0.25564  1.707267  3.438074
0.25830  1.747333  3.518221
0.26102  1.794592  3.607848
0.26380  1.853596  3.709912
0.26663  1.928938  3.827226
0.26953  2.032240  3.956844
0.27249  2.171601  4.086716
0.27552  2.349071  4.201599
0.27862  2.628658  4.321097
0.28178  2.785418  4.362811
0.28502  3.050163  4.416825
0.28834  3.394966  4.402960
0.29173  3.723503  4.225927
0.29520  3.914889  3.978253
0.29876  4.006225  3.768944
0.30240  4.057173  3.605733
0.30614  4.091204  3.480216
0.30996  4.122002  3.380042
0.31389  4.158415  3.298412
0.31791  4.198504  3.230405
0.32204  4.246031  3.171047
0.32628  4.300589  3.117523
0.33063  4.360303  3.068441
0.33510  4.425282  3.023403
0.33969  4.495869  2.984471
0.34440  4.578492  2.951962
0.34925  4.681890  2.932146
0.35424  4.835203  2.925834
0.35938  5.091488  2.899045
0.36466  5.435629  2.700140
0.37011  5.643383  2.280458
0.37571  5.561437  1.916406
0.38149  5.461131  1.558454
0.38745  5.342861  1.392478
0.39360  5.172683  1.244576
0.39995  5.079941  1.136854
0.40651  4.985026  1.065828
0.41328  4.904106  0.988597
0.42029  4.833865  0.923474
0.42754  4.771698  0.866270
0.43504  4.712648  0.811415
0.44280  4.658259  0.759567
0.45086  4.607683  0.708897
0.45920  4.560396  0.659639
0.46787  4.515693  0.611341
0.47687  4.473696  0.566202
0.48622  4.433467  0.525231
0.49594  4.394769  0.487361
0.50606  4.357053  0.452398
0.51660  4.319924  0.419157
0.52760  4.283151  0.386215
0.53907  4.246465  0.354009
0.55105  4.211030  0.323447
0.56357  4.171962  0.292464
0.57668  4.129396  0.261544
0.59041  4.094275  0.236472
0.60481  4.065031  0.215907
0.61993  4.035919  0.194851
0.63582  4.007083  0.173751
0.65255  3.976364  0.152827
0.67019  3.944388  0.132352
0.68881  3.913575  0.114603
0.70849  3.884215  0.099210
0.72932  3.855265  0.084782
0.75143  3.826192  0.071347
0.77491  3.799757  0.058412
0.79990  3.774801  0.045829
0.82657  3.746795  0.035356
0.85507  3.716705  0.027708
0.88561  3.686582  0.018317
0.91841  3.658767  0.007159
0.95373  3.633434  0.001613
0.99188  3.609212  0.001584
1.03321  3.589086  0.001104
1.07813  3.571893  0.001090
1.12714  3.556729  0.001523
1.18081  3.543772  0.001067
1.23985  3.528591  0.000000
1.30511  3.511533  0.000000
1.37761  3.498416  0.001030
1.45865  3.489129  0.000000
1.54981  3.477847  0.000000
1.65314  3.466203  0.000000
1.77122  3.455699  0.000000
1.90746  3.447872  0.000990
2.06642  3.444260  0.000000
2.25428  3.447863  0.000000
2.47970  3.457635  0.000000
