; From SOPRA S.A. http://www.sopra-sa.com/indices.htm
; Filename    Symbol               Range (nm)     Description
; SIPOLY30
; lambda/um       n         k
0.19075  0.875684  2.500428
0.19223  0.892969  2.529130
0.19373  0.911120  2.557642
0.19525  0.930023  2.585864
0.19680  0.949302  2.612653
0.19838  0.968444  2.636333
0.19998  0.987753  2.658409
0.20160  1.007176  2.678968
0.20325  1.027278  2.700602
0.20493  1.049670  2.728806
0.20664  1.071170  2.754948
0.20838  1.086673  2.766913
0.21014  1.103548  2.780633
0.21194  1.126492  2.806041
0.21377  1.153809  2.838390
0.21563  1.179022  2.869123
0.21752  1.201203  2.898942
0.21944  1.234885  2.938623
0.22140  1.263716  2.978021
0.22340  1.301171  3.018875
0.22543  1.345045  3.059021
0.22750  1.397250  3.095604
0.22960  1.453648  3.118859
0.23175  1.508937  3.126811
0.23393  1.547505  3.125473
0.23616  1.565893  3.127317
0.23843  1.575436  3.142262
0.24075  1.580446  3.170434
0.24311  1.585802  3.209913
0.24552  1.595770  3.259778
0.24797  1.609461  3.319014
0.25048  1.629774  3.385927
0.25303  1.654027  3.460376
0.25564  1.686345  3.542090
0.25830  1.724805  3.632412
0.26102  1.771069  3.734066
0.26380  1.830521  3.850671
0.26663  1.908588  3.985671
0.26953  2.019485  4.136021
0.27249  2.173067  4.287535
0.27552  2.372001  4.422048
0.27862  2.692404  4.563155
0.28178  2.867292  4.610590
0.28502  3.170542  4.673170
0.28834  3.569427  4.654721
0.29173  3.948499  4.440950
0.29520  4.162051  4.142867
0.29876  4.255047  3.891617
0.30240  4.299489  3.696421
0.30614  4.323660  3.547034
0.30996  4.343908  3.429302
0.31389  4.370831  3.334765
0.31791  4.402045  3.257408
0.32204  4.441963  3.191267
0.32628  4.490577  3.132233
0.33063  4.545510  3.078898
0.33510  4.606809  3.030954
0.33969  4.674998  2.990820
0.34440  4.756818  2.959766
0.34925  4.862994  2.944899
0.35424  5.028187  2.946733
0.35938  5.315191  2.924760
0.36466  5.706641  2.698132
0.37011  5.934604  2.210608
0.37571  5.819684  1.794547
0.38149  5.683807  1.388017
0.38745  5.531716  1.210744
0.39360  5.320395  1.057213
0.39995  5.202129  0.949477
0.40651  5.083094  0.884941
0.41328  4.982246  0.812630
0.42029  4.895730  0.754015
0.42754  4.819915  0.704335
0.43504  4.748782  0.657167
0.44280  4.683755  0.613059
0.45086  4.623752  0.569873
0.45920  4.568170  0.528005
0.46787  4.516180  0.486930
0.47687  4.467681  0.448750
0.48622  4.421666  0.414735
0.49594  4.377887  0.383764
0.50606  4.335774  0.355673
0.51660  4.295003  0.329154
0.52760  4.255349  0.302609
0.53907  4.216527  0.276660
0.55105  4.179314  0.252071
0.56357  4.140007  0.227457
0.57668  4.098669  0.203449
0.59041  4.063481  0.183995
0.60481  4.033197  0.167809
0.61993  4.003449  0.151285
0.63582  3.974270  0.134739
0.65255  3.944119  0.118407
0.67019  3.913521  0.102616
0.68881  3.884263  0.088947
0.70849  3.856583  0.077114
0.72932  3.829581  0.066012
0.75143  3.802843  0.055625
0.77491  3.778147  0.045621
0.79990  3.754244  0.035907
0.82657  3.728018  0.027768
0.85507  3.700188  0.021897
0.88561  3.672734  0.014746
0.91841  3.648077  0.006098
0.95373  3.625691  0.002268
0.99188  3.604090  0.001578
1.03321  3.585603  0.001557
1.07813  3.569295  0.001538
1.12714  3.554521  0.001075
1.18081  3.541382  0.001065
1.23985  3.526690  0.001053
1.30511  3.510850  0.001040
1.37761  3.498152  0.000000
1.45865  3.488464  0.000000
1.54981  3.477488  0.001014
1.65314  3.466508  0.000000
1.77122  3.456649  0.000000
1.90746  3.449081  0.000000
2.06642  3.444969  0.000000
2.25428  3.447195  0.000000
2.47970  3.453913  0.000000
