; From SOPRA S.A. http://www.sopra-sa.com/indices.htm
; Filename    Symbol               Range (nm)     Description
; TIO2B       TiO2                220     2420    Titanium Dioxide (probably crystal)
; lambda/um       n         k
0.22000  1.630878  1.471907
0.23000  1.789397  1.452089
0.24000  1.946086  1.430497
0.25000  2.099441  1.406145
0.26000  2.247953  1.378046
0.27000  2.389973  1.344965
0.28000  2.524209  1.306285
0.29000  2.649512  1.261627
0.30000  2.764758  1.210657
0.31000  2.869320  1.153934
0.32000  2.962210  1.091504
0.33000  3.043489  1.024528
0.34000  3.112588  0.953634
0.35000  3.169961  0.880100
0.36000  3.215683  0.805094
0.37000  3.250392  0.729769
0.38000  3.274793  0.655348
0.39000  3.289671  0.582910
0.40000  3.296084  0.513395
0.41000  3.294974  0.447820
0.42000  3.287477  0.386564
0.43000  3.274705  0.330474
0.44000  3.257636  0.279487
0.45000  3.237384  0.233983
0.46000  3.214759  0.193778
0.47000  3.190674  0.158778
0.48000  3.165808  0.128710
0.49000  3.140730  0.103166
0.50000  3.116008  0.081786
0.51000  3.091903  0.064094
0.52000  3.068858  0.049652
0.53000  3.046911  0.038034
0.54000  3.026308  0.028767
0.55000  3.007020  0.021518
0.56000  2.989100  0.015886
0.57000  2.972505  0.011590
0.58000  2.957167  0.008352
0.59000  2.943022  0.005932
0.60000  2.929979  0.004172
0.61000  2.917956  0.002879
0.62000  2.906865  0.001978
0.63000  2.896612  0.001323
0.64000  2.887130  0.000883
0.65000  2.878332  0.000575
0.66000  2.870163  0.000371
0.67000  2.862559  0.000236
0.68000  2.855468  0.000146
0.69000  2.848844  0.000091
0.70000  2.842640  0.000054
0.71000  2.836828  0.000033
0.72000  2.831368  0.000019
0.73000  2.826241  0.000012
0.74000  2.821414  0.000006
0.75000  2.816868  0.000004
0.76000  2.812582  0.000002
0.77000  2.808537  0.000001
0.78000  2.804714  0.000001
0.79000  2.801096  0.000000
0.80000  2.797669  0.000000
0.81000  2.794419  0.000000
0.82000  2.791334  0.000000
0.83000  2.788399  0.000000
0.84000  2.785603  0.000000
0.85000  2.782935  0.000000
0.86000  2.780385  0.000000
0.87000  2.777945  0.000000
0.88000  2.775605  0.000000
0.89000  2.773357  0.000000
0.90000  2.771193  0.000000
0.91000  2.769108  0.000000
0.92000  2.767097  0.000000
0.93000  2.765156  0.000000
0.94000  2.763281  0.000000
0.95000  2.761470  0.000000
0.96000  2.759719  0.000000
0.97000  2.758027  0.000000
0.98000  2.756390  0.000000
0.99000  2.754807  0.000000
1.00000  2.753277  0.000000
1.01000  2.751797  0.000000
1.02000  2.750367  0.000000
1.03000  2.748984  0.000000
1.04000  2.747645  0.000000
1.05000  2.746349  0.000000
1.06000  2.745093  0.000000
1.07000  2.743873  0.000000
1.08000  2.742687  0.000000
1.09000  2.741531  0.000000
1.10000  2.740401  0.000000
1.11000  2.739295  0.000000
1.12000  2.738210  0.000000
1.13000  2.737143  0.000000
1.14000  2.736090  0.000000
1.15000  2.735050  0.000000
1.16000  2.734020  0.000000
1.17000  2.732999  0.000000
1.18000  2.731984  0.000000
1.19000  2.730976  0.000000
1.20000  2.729973  0.000000
1.21000  2.728975  0.000000
1.22000  2.727982  0.000000
1.23000  2.726995  0.000000
1.24000  2.726016  0.000000
1.25000  2.725044  0.000000
1.26000  2.724083  0.000000
1.27000  2.723136  0.000000
1.28000  2.722205  0.000000
1.29000  2.721292  0.000000
1.30000  2.720401  0.000000
1.31000  2.719535  0.000000
1.32000  2.718700  0.000000
1.33000  2.717900  0.000000
1.34000  2.717136  0.000000
1.35000  2.716415  0.000000
1.36000  2.715741  0.000000
1.37000  2.715117  0.000000
1.38000  2.714548  0.000000
1.39000  2.714036  0.000000
1.40000  2.713584  0.000000
1.41000  2.713197  0.000000
1.42000  2.712874  0.000000
1.43000  2.712619  0.000000
1.44000  2.712432  0.000000
1.45000  2.712315  0.000000
1.46000  2.712266  0.000000
1.47000  2.712287  0.000000
1.48000  2.712376  0.000000
1.49000  2.712531  0.000000
1.50000  2.712752  0.000000
1.51000  2.713036  0.000000
1.52000  2.713381  0.000000
1.53000  2.713784  0.000000
1.54000  2.714242  0.000000
1.55000  2.714754  0.000000
1.56000  2.715315  0.000000
1.57000  2.715922  0.000000
1.58000  2.716572  0.000000
1.59000  2.717262  0.000000
1.60000  2.717988  0.000000
1.61000  2.718748  0.000000
1.62000  2.719537  0.000000
1.63000  2.720352  0.000000
1.64000  2.721190  0.000000
1.65000  2.722048  0.000000
1.66000  2.722922  0.000000
1.67000  2.723808  0.000000
1.68000  2.724703  0.000000
1.69000  2.725604  0.000000
1.70000  2.726508  0.000000
1.71000  2.727411  0.000000
1.72000  2.728310  0.000000
1.73000  2.729201  0.000000
1.74000  2.730081  0.000000
1.75000  2.730947  0.000000
1.76000  2.731795  0.000000
1.77000  2.732622  0.000000
1.78000  2.733424  0.000000
1.79000  2.734199  0.000000
1.80000  2.734942  0.000000
1.81000  2.735651  0.000000
1.82000  2.736322  0.000000
1.83000  2.736951  0.000000
1.84000  2.737536  0.000000
1.85000  2.738074  0.000000
1.86000  2.738560  0.000000
1.87000  2.738991  0.000000
1.88000  2.739363  0.000000
1.89000  2.739675  0.000000
1.90000  2.739921  0.000000
1.91000  2.740099  0.000000
1.92000  2.740206  0.000000
1.93000  2.740238  0.000000
1.94000  2.740192  0.000000
1.95000  2.740064  0.000000
1.96000  2.739851  0.000000
1.97000  2.739550  0.000000
1.98000  2.739157  0.000000
1.99000  2.738668  0.000000
2.00000  2.738082  0.000000
2.01000  2.737394  0.000000
2.02000  2.736601  0.000000
2.03000  2.735699  0.000000
2.04000  2.734685  0.000000
2.05000  2.733556  0.000000
2.06000  2.732308  0.000000
2.07000  2.730938  0.000000
2.08000  2.729443  0.000000
2.09000  2.727819  0.000000
2.10000  2.726063  0.000000
2.11000  2.724171  0.000000
2.12000  2.722141  0.000000
2.13000  2.719969  0.000000
2.14000  2.717651  0.000000
2.15000  2.715185  0.000000
2.16000  2.712569  0.000000
2.17000  2.709798  0.000000
2.18000  2.706868  0.000000
2.19000  2.703778  0.000000
2.20000  2.700523  0.000000
2.21000  2.697104  0.000000
2.22000  2.693517  0.000000
2.23000  2.689759  0.000000
2.24000  2.685833  0.000000
2.25000  2.681736  0.000000
2.26000  2.677469  0.000000
2.27000  2.673031  0.000000
2.28000  2.668423  0.000000
2.29000  2.663649  0.000000
2.30000  2.658712  0.000000
2.31000  2.653620  0.000000
2.32000  2.648375  0.000000
2.33000  2.642988  0.000000
2.34000  2.637466  0.000000
2.35000  2.631821  0.000000
2.36000  2.626067  0.000000
2.37000  2.620215  0.000000
2.38000  2.614277  0.000000
2.39000  2.608269  0.000000
2.40000  2.602209  0.000000
2.41000  2.596113  0.000000
2.42000  2.590000  0.000000
