; From SOPRA S.A. http://www.sopra-sa.com/indices.htm
; Filename    Symbol               Range (nm)     Description
; ZNCDTE1     Zn0.9Cd0.1Te        229     1127    Zinc Cadmium Telluride (10% Cd)
; lambda/um       n         k
0.22960  2.278763  2.839498
0.23003  2.302620  2.838992
0.23046  2.326686  2.837777
0.23088  2.350927  2.835831
0.23132  2.375304  2.833130
0.23175  2.399783  2.829654
0.23218  2.424317  2.825386
0.23262  2.448867  2.820311
0.23305  2.473385  2.814416
0.23349  2.497825  2.807692
0.23393  2.522135  2.800136
0.23438  2.546268  2.791744
0.23482  2.570171  2.782522
0.23527  2.593793  2.772474
0.23571  2.617083  2.761613
0.23616  2.639990  2.749952
0.23661  2.662461  2.737514
0.23707  2.684283  2.724571
0.23752  2.705739  2.710651
0.23798  2.726621  2.696037
0.23843  2.746883  2.680764
0.23889  2.766490  2.664870
0.23935  2.785402  2.648400
0.23982  2.803589  2.631396
0.24028  2.821020  2.613908
0.24075  2.837673  2.595983
0.24122  2.853526  2.577674
0.24169  2.868562  2.559033
0.24216  2.882771  2.540111
0.24263  2.896145  2.520962
0.24311  2.908681  2.501637
0.24359  2.920379  2.482192
0.24407  2.931246  2.462672
0.24455  2.941288  2.443130
0.24503  2.950519  2.423612
0.24552  2.958953  2.404165
0.24600  2.966609  2.384832
0.24649  2.973507  2.365654
0.24698  2.979672  2.346667
0.24748  2.985128  2.327911
0.24797  2.989902  2.309416
0.24847  2.994023  2.291214
0.24897  2.997519  2.273331
0.24947  3.000422  2.255793
0.24997  3.002761  2.238621
0.25048  3.004569  2.221836
0.25098  3.005876  2.205451
0.25149  3.006713  2.189485
0.25200  3.007112  2.173947
0.25252  3.007103  2.158849
0.25303  3.006716  2.144197
0.25355  3.005979  2.129998
0.25407  3.004923  2.116256
0.25459  3.003573  2.102974
0.25511  3.001957  2.090153
0.25564  3.000101  2.077793
0.25617  2.998029  2.065893
0.25670  2.995764  2.054448
0.25723  2.993330  2.043458
0.25777  2.990747  2.032916
0.25830  2.988037  2.022820
0.25884  2.985218  2.013161
0.25938  2.982309  2.003936
0.25993  2.979328  1.995137
0.26047  2.976290  1.986758
0.26102  2.973211  1.978791
0.26157  2.970105  1.971230
0.26213  2.966987  1.964067
0.26268  2.963869  1.957295
0.26324  2.960763  1.950906
0.26380  2.957681  1.944893
0.26436  2.954633  1.939249
0.26493  2.951628  1.933968
0.26549  2.948678  1.929042
0.26606  2.945789  1.924465
0.26663  2.942972  1.920231
0.26721  2.940233  1.916333
0.26779  2.937579  1.912767
0.26837  2.935019  1.909528
0.26895  2.932559  1.906610
0.26953  2.930205  1.904009
0.27012  2.927964  1.901721
0.27071  2.925842  1.899745
0.27130  2.923846  1.898076
0.27190  2.921980  1.896712
0.27249  2.920252  1.895653
0.27310  2.918668  1.894896
0.27370  2.917234  1.894443
0.27430  2.915957  1.894293
0.27491  2.914845  1.894448
0.27552  2.913905  1.894910
0.27614  2.913146  1.895681
0.27675  2.912575  1.896766
0.27737  2.912205  1.898170
0.27799  2.912045  1.899897
0.27862  2.912109  1.901954
0.27925  2.912410  1.904350
0.27988  2.912964  1.907093
0.28051  2.913790  1.910194
0.28115  2.914909  1.913663
0.28178  2.916344  1.917513
0.28243  2.918125  1.921757
0.28307  2.920284  1.926411
0.28372  2.922861  1.931489
0.28437  2.925900  1.937006
0.28502  2.929456  1.942976
0.28568  2.933593  1.949410
0.28634  2.938385  1.956319
0.28700  2.943921  1.963701
0.28767  2.950301  1.971547
0.28834  2.957639  1.979834
0.28901  2.966062  1.988518
0.28969  2.975709  1.997528
0.29036  2.986724  2.006766
0.29105  2.999249  2.016094
0.29173  3.013423  2.025334
0.29242  3.029361  2.034265
0.29311  3.047153  2.042624
0.29380  3.066836  2.050106
0.29450  3.088400  2.056374
0.29520  3.111758  2.061073
0.29591  3.136748  2.063839
0.29662  3.163116  2.064328
0.29733  3.190531  2.062235
0.29804  3.218576  2.057316
0.29876  3.246773  2.049417
0.29948  3.274610  2.038484
0.30021  3.301555  2.024585
0.30093  3.327101  2.007899
0.30167  3.350792  1.988714
0.30240  3.372251  1.967408
0.30314  3.391193  1.944422
0.30389  3.407444  1.920232
0.30463  3.420516  1.895985
0.30538  3.431269  1.870829
0.30614  3.439400  1.845831
0.30689  3.445087  1.821355
0.30766  3.448552  1.797702
0.30842  3.450042  1.775107
0.30919  3.449820  1.753751
0.30996  3.448142  1.733752
0.31074  3.445258  1.715185
0.31152  3.441399  1.698084
0.31231  3.436774  1.682452
0.31309  3.431569  1.668270
0.31389  3.425948  1.655503
0.31468  3.420052  1.644103
0.31548  3.414000  1.634016
0.31629  3.407895  1.625188
0.31710  3.401820  1.617565
0.31791  3.395847  1.611094
0.31873  3.390034  1.605731
0.31955  3.384429  1.601437
0.32038  3.379074  1.598181
0.32121  3.374007  1.595943
0.32204  3.369261  1.594711
0.32288  3.364871  1.594484
0.32372  3.360876  1.595276
0.32457  3.357321  1.597108
0.32542  3.354262  1.600013
0.32628  3.351769  1.604037
0.32714  3.349933  1.609229
0.32800  3.348868  1.615647
0.32887  3.348720  1.623345
0.32975  3.349666  1.632371
0.33063  3.351923  1.642757
0.33151  3.355744  1.654507
0.33240  3.361422  1.667584
0.33329  3.369283  1.681898
0.33419  3.379675  1.697291
0.33510  3.392958  1.713520
0.33600  3.409483  1.730254
0.33692  3.429569  1.747059
0.33783  3.453475  1.763408
0.33876  3.481374  1.778677
0.33969  3.513323  1.792169
0.34062  3.549237  1.803135
0.34156  3.588871  1.810810
0.34250  3.631807  1.814448
0.34345  3.677453  1.813372
0.34440  3.725060  1.807020
0.34536  3.773748  1.794987
0.34633  3.822548  1.777057
0.34730  3.870453  1.753230
0.34827  3.916473  1.723724
0.34925  3.959699  1.688962
0.35024  3.999345  1.649541
0.35123  4.034788  1.606196
0.35223  4.065590  1.559739
0.35323  4.091504  1.511015
0.35424  4.112458  1.460851
0.35526  4.128540  1.410024
0.35628  4.139964  1.359222
0.35731  4.147040  1.309035
0.35834  4.150142  1.259948
0.35938  4.149679  1.212339
0.36042  4.146074  1.166489
0.36147  4.139742  1.122590
0.36253  4.130410  1.080610
0.36359  4.119800  1.040917
0.36466  4.107564  1.003361
0.36574  4.094003  0.967911
0.36682  4.079383  0.934511
0.36791  4.063937  0.903085
0.36900  4.047862  0.873539
0.37011  4.031331  0.845775
0.37121  4.014224  0.819697
0.37233  3.997193  0.795185
0.37345  3.980074  0.772142
0.37458  3.962950  0.750467
0.37571  3.945891  0.730064
0.37685  3.928950  0.710840
0.37800  3.912171  0.692707
0.37916  3.895226  0.675696
0.38032  3.878830  0.659514
0.38149  3.862538  0.644235
0.38267  3.846595  0.629716
0.38386  3.830883  0.615935
0.38505  3.815391  0.602842
0.38625  3.800097  0.590397
0.38745  3.784963  0.578577
0.38867  3.769939  0.567383
0.38989  3.754952  0.556871
0.39112  3.739917  0.547203
0.39236  3.724807  0.538766
0.39360  3.709976  0.532386
0.39486  3.697383  0.529069
0.39612  3.691472  0.526189
0.39739  3.689278  0.514573
0.39867  3.679425  0.497867
0.39995  3.664620  0.484763
0.40125  3.649423  0.475093
0.40255  3.634974  0.467325
0.40386  3.621343  0.460621
0.40518  3.608418  0.454581
0.40651  3.596086  0.449003
0.40785  3.584263  0.443777
0.40919  3.572885  0.438837
0.41055  3.561904  0.434139
0.41191  3.551284  0.429652
0.41328  3.540996  0.425355
0.41467  3.530900  0.421228
0.41606  3.521221  0.417259
0.41746  3.511459  0.413435
0.41887  3.502336  0.409745
0.42029  3.493461  0.406178
0.42172  3.484823  0.402724
0.42316  3.476415  0.399377
0.42461  3.468227  0.396128
0.42607  3.460253  0.392971
0.42754  3.452485  0.389899
0.42901  3.444918  0.386907
0.43050  3.437545  0.383988
0.43200  3.430361  0.381139
0.43351  3.423361  0.378352
0.43504  3.416540  0.375624
0.43657  3.409894  0.372951
0.43811  3.403417  0.370327
0.43966  3.397107  0.367748
0.44123  3.390959  0.365211
0.44280  3.384969  0.362711
0.44439  3.379134  0.360245
0.44599  3.373451  0.357809
0.44760  3.367915  0.355400
0.44922  3.362525  0.353014
0.45086  3.357278  0.350647
0.45250  3.352170  0.348297
0.45416  3.347198  0.345960
0.45583  3.342360  0.343633
0.45751  3.337654  0.341312
0.45920  3.333077  0.338995
0.46091  3.328627  0.336679
0.46263  3.324301  0.334360
0.46436  3.320097  0.332035
0.46611  3.316013  0.329702
0.46787  3.312048  0.327357
0.46964  3.308198  0.324996
0.47143  3.304463  0.322618
0.47323  3.300839  0.320218
0.47504  3.297325  0.317793
0.47687  3.293920  0.315340
0.47871  3.290621  0.312855
0.48056  3.287427  0.310336
0.48243  3.284336  0.307778
0.48432  3.281345  0.305177
0.48622  3.278453  0.302530
0.48813  3.275659  0.299832
0.49006  3.272960  0.297080
0.49200  3.270355  0.294269
0.49396  3.267840  0.291394
0.49594  3.265415  0.288450
0.49793  3.262635  0.285502
0.49994  3.260365  0.282408
0.50196  3.258175  0.279230
0.50400  3.256064  0.275960
0.50606  3.253874  0.272618
0.50814  3.251902  0.269147
0.51023  3.249997  0.265564
0.51234  3.248154  0.261860
0.51446  3.246368  0.258026
0.51660  3.244633  0.254053
0.51877  3.242942  0.249929
0.52095  3.241286  0.245643
0.52314  3.239656  0.241182
0.52536  3.238039  0.236532
0.52760  3.236420  0.231678
0.52985  3.234780  0.226602
0.53213  3.233095  0.221286
0.53442  3.231335  0.215709
0.53673  3.229459  0.209853
0.53907  3.227413  0.203696
0.54142  3.225122  0.197224
0.54379  3.222484  0.190431
0.54619  3.219352  0.183338
0.54861  3.215513  0.176028
0.55105  3.210668  0.168726
0.55351  3.204439  0.161994
0.55599  3.196618  0.157199
0.55849  3.188279  0.157823
0.56102  3.187815  0.164307
0.56357  3.202924  0.162882
0.56614  3.212292  0.139851
0.56874  3.203013  0.116539
0.57136  3.188381  0.102485
0.57401  3.174059  0.094154
0.57668  3.161158  0.088826
0.57937  3.149602  0.085117
0.58209  3.139138  0.082344
0.58484  3.129543  0.080150
0.58761  3.120646  0.078334
0.59041  3.112318  0.076780
0.59323  3.104464  0.075413
0.59608  3.097009  0.074186
0.59896  3.089898  0.073065
0.60187  3.083085  0.072029
0.60481  3.076535  0.071060
0.60777  3.070218  0.070146
0.61076  3.064111  0.069279
0.61379  3.058194  0.068451
0.61684  3.052449  0.067657
0.61993  3.046863  0.066892
0.62304  3.041422  0.066153
0.62619  3.036117  0.065438
0.62937  3.030937  0.064742
0.63258  3.025876  0.064066
0.63582  3.020925  0.063406
0.63910  3.015926  0.062754
0.64241  3.011182  0.062125
0.64576  3.006531  0.061509
0.64914  3.001967  0.060905
0.65255  2.997039  0.060294
0.65601  2.992652  0.059714
0.65950  2.988341  0.059144
0.66302  2.984102  0.058584
0.66659  2.979934  0.058033
0.67019  2.975831  0.057490
0.67383  2.971793  0.056955
0.67751  2.967818  0.056429
0.68124  2.963902  0.055910
0.68500  2.960043  0.055398
0.68881  2.956241  0.054893
0.69265  2.952493  0.054395
0.69655  2.948798  0.053903
0.70048  2.945153  0.053418
0.70446  2.941559  0.052938
0.70849  2.938012  0.052465
0.71256  2.934513  0.051997
0.71668  2.931059  0.051535
0.72084  2.927650  0.051078
0.72506  2.924284  0.050626
0.72932  2.920961  0.050179
0.73364  2.917679  0.049738
0.73801  2.914438  0.049301
0.74243  2.911236  0.048869
0.74690  2.908072  0.048441
0.75143  2.904947  0.048018
0.75601  2.901477  0.047574
0.76065  2.898426  0.047160
0.76534  2.895411  0.046750
0.77009  2.892430  0.046343
0.77491  2.889484  0.045941
0.77978  2.886572  0.045543
0.78472  2.883692  0.045149
0.78971  2.880845  0.044758
0.79478  2.878029  0.044371
0.79990  2.875245  0.043988
0.80510  2.872491  0.043608
0.81036  2.869767  0.043231
0.81569  2.867073  0.042858
0.82109  2.864409  0.042488
0.82657  2.861773  0.042122
0.83212  2.859165  0.041758
0.83774  2.856585  0.041398
0.84344  2.854033  0.041041
0.84921  2.851507  0.040687
0.85507  2.849008  0.040336
0.86101  2.846535  0.039987
0.86703  2.844088  0.039642
0.87314  2.841667  0.039299
0.87933  2.839271  0.038960
0.88561  2.836899  0.038622
0.89198  2.834552  0.038288
0.89844  2.832230  0.037956
0.90500  2.829931  0.037627
0.91166  2.827655  0.037300
0.91841  2.825403  0.036976
0.92526  2.823174  0.036654
0.93222  2.820967  0.036335
0.93928  2.818783  0.036018
0.94645  2.816620  0.035703
0.95373  2.814480  0.035391
0.96113  2.812361  0.035081
0.96863  2.810264  0.034773
0.97626  2.808187  0.034467
0.98401  2.806132  0.034164
0.99188  2.804097  0.033862
0.99988  2.802083  0.033563
1.00801  2.800089  0.033266
1.01627  2.798115  0.032970
1.02467  2.796160  0.032677
1.03321  2.794225  0.032386
1.04189  2.792310  0.032097
1.05072  2.790414  0.031809
1.05970  2.788536  0.031524
1.06884  2.786678  0.031240
1.07813  2.784838  0.030958
1.08759  2.783016  0.030678
1.09721  2.781213  0.030399
1.10701  2.779428  0.030123
1.11698  2.777661  0.029848
1.12714  2.775912  0.029575
