; From SOPRA S.A. http://www.sopra-sa.com/indices.htm
; Filename    Symbol               Range (nm)     Description
; ZNCDTE9     Zn0.1Cd0.9Te        229     1127    Zinc Cadmium Telluride (90% Cd)
; lambda/um       n         k
0.22960  1.889009  2.477196
0.23003  1.908503  2.482385
0.23046  1.928409  2.487130
0.23088  1.948717  2.491399
0.23132  1.969410  2.495159
0.23175  1.990478  2.498380
0.23218  2.011898  2.501027
0.23262  2.033651  2.503071
0.23305  2.055712  2.504478
0.23349  2.078055  2.505218
0.23393  2.100647  2.505261
0.23438  2.123456  2.504580
0.23482  2.146444  2.503146
0.23527  2.169573  2.500938
0.23571  2.192797  2.497931
0.23616  2.216075  2.494108
0.23661  2.239353  2.489452
0.23707  2.262585  2.483953
0.23752  2.285716  2.477600
0.23798  2.308693  2.470392
0.23843  2.331460  2.462328
0.23889  2.353962  2.453414
0.23935  2.376141  2.443661
0.23982  2.397943  2.433083
0.24028  2.419311  2.421702
0.24075  2.440194  2.409541
0.24122  2.460538  2.396631
0.24169  2.480293  2.383008
0.24216  2.499416  2.368709
0.24263  2.517862  2.353778
0.24311  2.535594  2.338261
0.24359  2.552574  2.322208
0.24407  2.568777  2.305670
0.24455  2.584174  2.288703
0.24503  2.598747  2.271361
0.24552  2.612480  2.253702
0.24600  2.625362  2.235782
0.24649  2.637389  2.217659
0.24698  2.648561  2.199388
0.24748  2.658881  2.181026
0.24797  2.668358  2.162625
0.24847  2.677004  2.144238
0.24897  2.684836  2.125913
0.24947  2.691874  2.107698
0.24997  2.698140  2.089636
0.25048  2.703450  2.072037
0.25098  2.708248  2.054404
0.25149  2.712356  2.037040
0.25200  2.715807  2.019974
0.25252  2.718631  2.003236
0.25303  2.720862  1.986849
0.25355  2.722533  1.970836
0.25407  2.723678  1.955216
0.25459  2.724330  1.940005
0.25511  2.724524  1.925218
0.25564  2.724291  1.910863
0.25617  2.723664  1.896952
0.25670  2.722675  1.883487
0.25723  2.721355  1.870476
0.25777  2.719732  1.857919
0.25830  2.717835  1.845818
0.25884  2.715693  1.834170
0.25938  2.713331  1.822976
0.25993  2.710773  1.812229
0.26047  2.708045  1.801927
0.26102  2.705168  1.792063
0.26157  2.702163  1.782631
0.26213  2.699051  1.773623
0.26268  2.695851  1.765033
0.26324  2.692580  1.756851
0.26380  2.689256  1.749071
0.26436  2.685893  1.741681
0.26493  2.682507  1.734674
0.26549  2.679110  1.728040
0.26606  2.675716  1.721770
0.26663  2.672336  1.715854
0.26721  2.668981  1.710284
0.26779  2.665660  1.705048
0.26837  2.662385  1.700140
0.26895  2.659162  1.695549
0.26953  2.655999  1.691266
0.27012  2.652905  1.687283
0.27071  2.649886  1.683591
0.27130  2.646947  1.680183
0.27190  2.644095  1.677049
0.27249  2.641335  1.674182
0.27310  2.638670  1.671575
0.27370  2.636107  1.669220
0.27430  2.633648  1.667111
0.27491  2.631298  1.665241
0.27552  2.629059  1.663603
0.27614  2.626935  1.662193
0.27675  2.624928  1.661004
0.27737  2.623042  1.660031
0.27799  2.621279  1.659269
0.27862  2.619640  1.658714
0.27925  2.618129  1.658361
0.27988  2.616747  1.658208
0.28051  2.615496  1.658249
0.28115  2.614379  1.658484
0.28178  2.613398  1.658908
0.28243  2.612553  1.659520
0.28307  2.611848  1.660318
0.28372  2.611285  1.661300
0.28437  2.610866  1.662466
0.28502  2.610593  1.663817
0.28568  2.610469  1.665350
0.28634  2.610497  1.667069
0.28700  2.610682  1.668973
0.28767  2.611025  1.671065
0.28834  2.611532  1.673348
0.28901  2.612208  1.675825
0.28969  2.613058  1.678500
0.29036  2.614089  1.681378
0.29105  2.615309  1.684464
0.29173  2.616727  1.687765
0.29242  2.618354  1.691288
0.29311  2.620202  1.695042
0.29380  2.622287  1.699035
0.29450  2.624626  1.703277
0.29520  2.627240  1.707778
0.29591  2.630154  1.712547
0.29662  2.633397  1.717594
0.29733  2.637004  1.722927
0.29804  2.641014  1.728552
0.29876  2.645472  1.734472
0.29948  2.650431  1.740685
0.30021  2.655948  1.747184
0.30093  2.662089  1.753952
0.30167  2.668922  1.760964
0.30240  2.676522  1.768180
0.30314  2.684964  1.775548
0.30389  2.694325  1.782998
0.30463  2.704678  1.790443
0.30538  2.716088  1.797778
0.30614  2.728610  1.804878
0.30689  2.742282  1.811598
0.30766  2.757122  1.817780
0.30842  2.773123  1.823249
0.30919  2.790244  1.827822
0.30996  2.808417  1.831314
0.31074  2.827530  1.833542
0.31152  2.847436  1.834335
0.31231  2.867955  1.833543
0.31309  2.888870  1.831047
0.31389  2.909936  1.826764
0.31468  2.930893  1.820656
0.31548  2.951471  1.812736
0.31629  2.971400  1.803065
0.31710  2.990427  1.791757
0.31791  3.008327  1.778968
0.31873  3.024905  1.764895
0.31955  3.040011  1.749761
0.32038  3.053539  1.733807
0.32121  3.065431  1.717280
0.32204  3.075673  1.700427
0.32288  3.083930  1.684298
0.32372  3.090989  1.667491
0.32457  3.096575  1.650990
0.32542  3.100797  1.634960
0.32628  3.103780  1.619534
0.32714  3.105654  1.604820
0.32800  3.106550  1.590901
0.32887  3.106601  1.577837
0.32975  3.105931  1.565669
0.33063  3.104659  1.554422
0.33151  3.102892  1.544107
0.33240  3.100732  1.534727
0.33329  3.098267  1.526277
0.33419  3.095578  1.518747
0.33510  3.092736  1.512125
0.33600  3.089804  1.506400
0.33692  3.086842  1.501562
0.33783  3.083903  1.497602
0.33876  3.081034  1.494515
0.33969  3.078286  1.492303
0.34062  3.075707  1.490970
0.34156  3.073349  1.490526
0.34250  3.071268  1.490986
0.34345  3.069528  1.492367
0.34440  3.068202  1.494691
0.34536  3.067374  1.497978
0.34633  3.067145  1.502249
0.34730  3.067626  1.507517
0.34827  3.068947  1.513787
0.34925  3.071257  1.521051
0.35024  3.074718  1.529282
0.35123  3.079507  1.538427
0.35223  3.085811  1.548406
0.35323  3.093826  1.559103
0.35424  3.103745  1.570366
0.35526  3.115752  1.581996
0.35628  3.130019  1.593754
0.35731  3.146686  1.605358
0.35834  3.165858  1.616481
0.35938  3.187590  1.626764
0.36042  3.211879  1.635820
0.36147  3.238657  1.643244
0.36253  3.267780  1.648627
0.36359  3.299031  1.651573
0.36466  3.332110  1.651713
0.36574  3.366653  1.648725
0.36682  3.402225  1.642348
0.36791  3.438342  1.632398
0.36900  3.474489  1.618781
0.37011  3.510135  1.601497
0.37121  3.544753  1.580642
0.37233  3.577851  1.556406
0.37345  3.608981  1.529062
0.37458  3.637759  1.498953
0.37571  3.663877  1.466475
0.37685  3.687109  1.432056
0.37800  3.707044  1.396174
0.37916  3.723446  1.359009
0.38032  3.737503  1.321403
0.38149  3.748555  1.283548
0.38267  3.756731  1.245795
0.38386  3.762195  1.208449
0.38505  3.765142  1.171770
0.38625  3.765785  1.135969
0.38745  3.764344  1.101213
0.38867  3.761039  1.067628
0.38989  3.756089  1.035305
0.39112  3.749701  1.004302
0.39236  3.742069  0.974651
0.39360  3.733374  0.946361
0.39486  3.723781  0.919424
0.39612  3.713442  0.893816
0.39739  3.702489  0.869504
0.39867  3.691044  0.846445
0.39995  3.679211  0.824592
0.40125  3.667085  0.803893
0.40255  3.654747  0.784294
0.40386  3.642267  0.765740
0.40518  3.629706  0.748176
0.40651  3.617119  0.731548
0.40785  3.604549  0.715804
0.40919  3.592036  0.700891
0.41055  3.579611  0.686760
0.41191  3.567302  0.673365
0.41328  3.555132  0.660659
0.41467  3.543121  0.648600
0.41606  3.531283  0.637148
0.41746  3.519631  0.626265
0.41887  3.508176  0.615914
0.42029  3.496925  0.606061
0.42172  3.485884  0.596675
0.42316  3.475058  0.587725
0.42461  3.464450  0.579184
0.42607  3.454061  0.571023
0.42754  3.443893  0.563219
0.42901  3.433944  0.555748
0.43050  3.424215  0.548588
0.43200  3.414704  0.541716
0.43351  3.405408  0.535115
0.43504  3.396325  0.528764
0.43657  3.387452  0.522647
0.43811  3.378785  0.516745
0.43966  3.370321  0.511043
0.44123  3.362055  0.505525
0.44280  3.353984  0.500177
0.44439  3.346101  0.494983
0.44599  3.338402  0.489930
0.44760  3.330880  0.485004
0.44922  3.323530  0.480191
0.45086  3.316343  0.475477
0.45250  3.309310  0.470850
0.45416  3.302423  0.466294
0.45583  3.295668  0.461798
0.45751  3.289031  0.457345
0.45920  3.282490  0.452923
0.46091  3.275578  0.448643
0.46263  3.268925  0.444319
0.46436  3.262351  0.439974
0.46611  3.255621  0.435676
0.46787  3.248559  0.431519
0.46964  3.240870  0.427812
0.47143  3.232166  0.425595
0.47323  3.223665  0.428342
0.47504  3.228415  0.435341
0.47687  3.235512  0.418964
0.47871  3.224590  0.405928
0.48056  3.213478  0.400315
0.48243  3.204085  0.397070
0.48432  3.195878  0.394687
0.48622  3.188465  0.392696
0.48813  3.181620  0.390919
0.49006  3.175083  0.389278
0.49200  3.168646  0.387737
0.49396  3.162931  0.386271
0.49594  3.157465  0.384865
0.49793  3.152221  0.383509
0.49994  3.147181  0.382196
0.50196  3.142329  0.380924
0.50400  3.137652  0.379686
0.50606  3.133141  0.378481
0.50814  3.128788  0.377305
0.51023  3.124585  0.376155
0.51234  3.120527  0.375030
0.51446  3.116609  0.373926
0.51660  3.112826  0.372842
0.51877  3.109174  0.371776
0.52095  3.105650  0.370724
0.52314  3.102251  0.369687
0.52536  3.098973  0.368661
0.52760  3.095815  0.367645
0.52985  3.092774  0.366636
0.53213  3.089848  0.365633
0.53442  3.087034  0.364635
0.53673  3.084332  0.363639
0.53907  3.081739  0.362643
0.54142  3.079255  0.361646
0.54379  3.076877  0.360645
0.54619  3.074604  0.359640
0.54861  3.072435  0.358627
0.55105  3.070369  0.357606
0.55351  3.068406  0.356574
0.55599  3.066543  0.355529
0.55849  3.064780  0.354470
0.56102  3.063117  0.353394
0.56357  3.061553  0.352300
0.56614  3.060086  0.351185
0.56874  3.058716  0.350047
0.57136  3.057443  0.348883
0.57401  3.056266  0.347693
0.57668  3.055184  0.346473
0.57937  3.054198  0.345221
0.58209  3.053306  0.343935
0.58484  3.052508  0.342612
0.58761  3.051804  0.341249
0.59041  3.051194  0.339844
0.59323  3.050677  0.338393
0.59608  3.050252  0.336895
0.59896  3.049920  0.335345
0.60187  3.049681  0.333740
0.60481  3.049534  0.332078
0.60777  3.049478  0.330355
0.61076  3.049515  0.328566
0.61379  3.049642  0.326708
0.61684  3.049861  0.324777
0.61993  3.050171  0.322768
0.62304  3.050572  0.320677
0.62619  3.051063  0.318499
0.62937  3.051644  0.316228
0.63258  3.052316  0.313859
0.63582  3.053077  0.311386
0.63910  3.053926  0.308803
0.64241  3.054865  0.306103
0.64576  3.055892  0.303277
0.64914  3.057005  0.300319
0.65255  3.058205  0.297220
0.65601  3.059491  0.293970
0.65950  3.060860  0.290559
0.66302  3.062312  0.286976
0.66659  3.063844  0.283209
0.67019  3.065454  0.279243
0.67383  3.067140  0.275065
0.67751  3.068897  0.270656
0.68124  3.070722  0.265999
0.68500  3.072143  0.261143
0.68881  3.074053  0.255928
0.69265  3.076004  0.250392
0.69655  3.077815  0.244533
0.70048  3.079793  0.238260
0.70446  3.081759  0.231558
0.70849  3.083681  0.224376
0.71256  3.085518  0.216655
0.71668  3.087208  0.208324
0.72084  3.088660  0.199299
0.72506  3.089736  0.189483
0.72932  3.090212  0.178769
0.73364  3.089704  0.167070
0.73801  3.087514  0.154438
0.74243  3.082330  0.141559
0.74690  3.072327  0.132007
0.75143  3.065292  0.138132
0.75601  3.091427  0.129226
0.76065  3.084059  0.089883
0.76534  3.062041  0.072425
0.77009  3.043571  0.064788
0.77491  3.028540  0.060628
0.77978  3.015850  0.057956
0.78472  3.004784  0.056038
0.78971  2.994901  0.054550
0.79478  2.985921  0.053330
0.79990  2.977654  0.052290
0.80510  2.969965  0.051376
0.81036  2.962759  0.050555
0.81569  2.955963  0.049804
0.82109  2.949145  0.049077
0.82657  2.943009  0.048426
0.83212  2.936997  0.047804
0.83774  2.931383  0.047220
0.84344  2.925537  0.046640
0.84921  2.920359  0.046106
0.85507  2.915358  0.045589
0.86101  2.910519  0.045089
0.86703  2.905829  0.044603
0.87314  2.901278  0.044129
0.87933  2.896855  0.043668
0.88561  2.892553  0.043217
0.89198  2.888363  0.042775
0.89844  2.884278  0.042342
0.90500  2.880293  0.041917
0.91166  2.876403  0.041500
0.91841  2.872601  0.041090
0.92526  2.868884  0.040687
0.93222  2.865247  0.040290
0.93928  2.861687  0.039898
0.94645  2.858201  0.039513
0.95373  2.854784  0.039132
0.96113  2.851434  0.038757
0.96863  2.848148  0.038386
0.97626  2.844925  0.038020
0.98401  2.841760  0.037659
0.99188  2.838653  0.037301
0.99988  2.835601  0.036948
1.00801  2.832603  0.036599
1.01627  2.829656  0.036253
1.02467  2.826759  0.035911
1.03321  2.823910  0.035573
1.04189  2.821108  0.035238
1.05072  2.818351  0.034906
1.05970  2.815638  0.034578
1.06884  2.812968  0.034252
1.07813  2.810340  0.033930
1.08759  2.807752  0.033611
1.09721  2.805204  0.033295
1.10701  2.802695  0.032981
1.11698  2.800223  0.032670
1.12714  2.797787  0.032362
