; From SOPRA S.A. http://www.sopra-sa.com/indices.htm
; Filename    Symbol               Range (nm)     Description
; ZNCDTE7     Zn0.3Cd0.7Te        229     1127    Zinc Cadmium Telluride (70% Cd)
; lambda/um       n         k
0.22960  1.982322  2.579779
0.23003  2.003137  2.583763
0.23046  2.024332  2.587228
0.23088  2.045892  2.590143
0.23132  2.067795  2.592477
0.23175  2.090023  2.594197
0.23218  2.112548  2.595273
0.23262  2.135344  2.595676
0.23305  2.158379  2.595377
0.23349  2.181621  2.594347
0.23393  2.205031  2.592563
0.23438  2.228571  2.590000
0.23482  2.252195  2.586638
0.23527  2.275862  2.582459
0.23571  2.299521  2.577448
0.23616  2.323125  2.571593
0.23661  2.346618  2.564889
0.23707  2.369951  2.557330
0.23752  2.393067  2.548920
0.23798  2.415913  2.539664
0.23843  2.438430  2.529572
0.23889  2.460567  2.518660
0.23935  2.482269  2.506948
0.23982  2.503483  2.494461
0.24028  2.524157  2.481229
0.24075  2.544246  2.467285
0.24122  2.563702  2.452668
0.24169  2.582484  2.437421
0.24216  2.600554  2.421588
0.24263  2.617877  2.405218
0.24311  2.634424  2.388362
0.24359  2.650170  2.371074
0.24407  2.665095  2.353407
0.24455  2.679182  2.335418
0.24503  2.692423  2.317163
0.24552  2.704809  2.298698
0.24600  2.716341  2.280078
0.24649  2.727022  2.261358
0.24698  2.736661  2.242851
0.24748  2.745663  2.224092
0.24797  2.753849  2.205384
0.24847  2.761236  2.186778
0.24897  2.767847  2.168315
0.24947  2.773706  2.150038
0.24997  2.778839  2.131984
0.25048  2.783275  2.114190
0.25098  2.787045  2.096685
0.25149  2.790178  2.079500
0.25200  2.792708  2.062660
0.25252  2.794667  2.046190
0.25303  2.796089  2.030106
0.25355  2.797006  2.014428
0.25407  2.797452  1.999169
0.25459  2.797459  1.984341
0.25511  2.797060  1.969954
0.25564  2.796285  1.956015
0.25617  2.795166  1.942530
0.25670  2.793731  1.929499
0.25723  2.792011  1.916928
0.25777  2.790032  1.904812
0.25830  2.787821  1.893154
0.25884  2.785403  1.881948
0.25938  2.782802  1.871193
0.25993  2.780041  1.860881
0.26047  2.777143  1.851009
0.26102  2.774127  1.841568
0.26157  2.771013  1.832553
0.26213  2.767819  1.823955
0.26268  2.764562  1.815766
0.26324  2.761259  1.807979
0.26380  2.757925  1.800583
0.26436  2.754573  1.793571
0.26493  2.751217  1.786934
0.26549  2.747869  1.780663
0.26606  2.744540  1.774747
0.26663  2.741241  1.769179
0.26721  2.737982  1.763949
0.26779  2.734772  1.759049
0.26837  2.731619  1.754470
0.26895  2.728531  1.750203
0.26953  2.725515  1.746240
0.27012  2.722578  1.742574
0.27071  2.719725  1.739196
0.27130  2.716964  1.736099
0.27190  2.714298  1.733276
0.27249  2.711733  1.730719
0.27310  2.709272  1.728423
0.27370  2.706921  1.726381
0.27430  2.704683  1.724587
0.27491  2.702562  1.723035
0.27552  2.700560  1.721721
0.27614  2.698682  1.720640
0.27675  2.696930  1.719787
0.27737  2.695307  1.719158
0.27799  2.693817  1.718750
0.27862  2.692461  1.718560
0.27925  2.691242  1.718585
0.27988  2.690164  1.718822
0.28051  2.689230  1.719271
0.28115  2.688441  1.719929
0.28178  2.687802  1.720796
0.28243  2.687315  1.721872
0.28307  2.686985  1.723158
0.28372  2.686816  1.724653
0.28437  2.686810  1.726361
0.28502  2.686975  1.728283
0.28568  2.687314  1.730421
0.28634  2.687834  1.732782
0.28700  2.688543  1.735367
0.28767  2.689449  1.738185
0.28834  2.690561  1.741240
0.28901  2.691890  1.744540
0.28969  2.693449  1.748093
0.29036  2.695255  1.751910
0.29105  2.697324  1.755998
0.29173  2.699678  1.760370
0.29242  2.702343  1.765035
0.29311  2.705348  1.770006
0.29380  2.708729  1.775291
0.29450  2.712526  1.780901
0.29520  2.716787  1.786839
0.29591  2.721568  1.793109
0.29662  2.726930  1.799704
0.29733  2.732944  1.806615
0.29804  2.739688  1.813815
0.29876  2.747244  1.821270
0.29948  2.755701  1.828926
0.30021  2.765146  1.836712
0.30093  2.775668  1.844536
0.30167  2.787346  1.852285
0.30240  2.800251  1.859820
0.30314  2.814434  1.866981
0.30389  2.829924  1.873587
0.30463  2.846720  1.879439
0.30538  2.864785  1.884323
0.30614  2.884044  1.888023
0.30689  2.904375  1.890325
0.30766  2.925612  1.891025
0.30842  2.947544  1.889947
0.30919  2.969916  1.886949
0.30996  2.992447  1.881935
0.31074  3.014828  1.874864
0.31152  3.036741  1.865755
0.31231  3.057876  1.854688
0.31309  3.077939  1.841806
0.31389  3.096672  1.827302
0.31468  3.113862  1.811415
0.31548  3.129347  1.794412
0.31629  3.143022  1.776581
0.31710  3.154837  1.758212
0.31791  3.164414  1.740359
0.31873  3.172570  1.721759
0.31955  3.179011  1.703398
0.32038  3.183856  1.685483
0.32121  3.187242  1.668182
0.32204  3.189319  1.651635
0.32288  3.190245  1.635946
0.32372  3.190173  1.621192
0.32457  3.189252  1.607424
0.32542  3.187624  1.594674
0.32628  3.185416  1.582955
0.32714  3.182749  1.572267
0.32800  3.179726  1.562602
0.32887  3.176442  1.553943
0.32975  3.172980  1.546272
0.33063  3.169410  1.539569
0.33151  3.165798  1.533814
0.33240  3.162198  1.528990
0.33329  3.158662  1.525085
0.33419  3.155235  1.522091
0.33510  3.151963  1.520005
0.33600  3.148890  1.518834
0.33692  3.146066  1.518588
0.33783  3.143544  1.519285
0.33876  3.141386  1.520949
0.33969  3.139664  1.523608
0.34062  3.138466  1.527291
0.34156  3.137895  1.532028
0.34250  3.138073  1.537844
0.34345  3.139142  1.544756
0.34440  3.141267  1.552764
0.34536  3.144632  1.561850
0.34633  3.149442  1.571965
0.34730  3.155918  1.583029
0.34827  3.164287  1.594917
0.34925  3.174783  1.607457
0.35024  3.187628  1.620427
0.35123  3.203027  1.633546
0.35223  3.221150  1.646482
0.35323  3.242125  1.658851
0.35424  3.266014  1.670223
0.35526  3.292809  1.680133
0.35628  3.322417  1.688099
0.35731  3.354652  1.693636
0.35834  3.389233  1.696276
0.35938  3.425781  1.695593
0.36042  3.463832  1.691224
0.36147  3.502844  1.682889
0.36253  3.542222  1.670413
0.36359  3.581336  1.653734
0.36466  3.619554  1.632913
0.36574  3.656267  1.608127
0.36682  3.690914  1.579666
0.36791  3.723008  1.547916
0.36900  3.752156  1.513330
0.37011  3.778064  1.476415
0.37121  3.800541  1.437700
0.37233  3.819502  1.397711
0.37345  3.834951  1.356955
0.37458  3.846975  1.315897
0.37571  3.854764  1.274816
0.37685  3.860456  1.234364
0.37800  3.863308  1.194696
0.37916  3.863577  1.156057
0.38032  3.861527  1.118637
0.38149  3.857421  1.082576
0.38267  3.851516  1.047970
0.38386  3.844056  1.014876
0.38505  3.835265  0.983321
0.38625  3.825352  0.953307
0.38745  3.814505  0.924813
0.38867  3.802893  0.897805
0.38989  3.790667  0.872237
0.39112  3.777958  0.848052
0.39236  3.764882  0.825191
0.39360  3.751539  0.803590
0.39486  3.738018  0.783184
0.39612  3.724393  0.763907
0.39739  3.710726  0.745693
0.39867  3.697073  0.728480
0.39995  3.683480  0.712207
0.40125  3.669984  0.696814
0.40255  3.656619  0.682245
0.40386  3.643410  0.668448
0.40518  3.630379  0.655370
0.40651  3.617544  0.642966
0.40785  3.604918  0.631190
0.40919  3.592514  0.619999
0.41055  3.580338  0.609354
0.41191  3.568398  0.599218
0.41328  3.556696  0.589556
0.41467  3.545236  0.580335
0.41606  3.534018  0.571523
0.41746  3.523042  0.563093
0.41887  3.512308  0.555017
0.42029  3.501812  0.547269
0.42172  3.491551  0.539824
0.42316  3.481522  0.532661
0.42461  3.471720  0.525756
0.42607  3.462139  0.519089
0.42754  3.452774  0.512641
0.42901  3.443616  0.506391
0.43050  3.434659  0.500321
0.43200  3.425891  0.494413
0.43351  3.417302  0.488650
0.43504  3.408878  0.483015
0.43657  3.400602  0.477491
0.43811  3.392006  0.472195
0.43966  3.383746  0.466922
0.44123  3.375657  0.461698
0.44280  3.367536  0.456572
0.44439  3.359279  0.451589
0.44599  3.350723  0.446879
0.44760  3.341630  0.442811
0.44922  3.331843  0.440471
0.45086  3.323122  0.442671
0.45250  3.325567  0.447436
0.45416  3.331602  0.433847
0.45583  3.321903  0.419375
0.45751  3.310007  0.412020
0.45920  3.299417  0.407569
0.46091  3.289988  0.404264
0.46263  3.281390  0.401498
0.46436  3.273404  0.399031
0.46611  3.265891  0.396755
0.46787  3.258629  0.394613
0.46964  3.251838  0.392580
0.47143  3.244951  0.390634
0.47323  3.238720  0.388761
0.47504  3.232713  0.386951
0.47687  3.226913  0.385197
0.47871  3.221307  0.383493
0.48056  3.215883  0.381835
0.48243  3.210632  0.380219
0.48432  3.205548  0.378642
0.48622  3.200622  0.377100
0.48813  3.195850  0.375590
0.49006  3.191226  0.374109
0.49200  3.186746  0.372656
0.49396  3.182405  0.371226
0.49594  3.178200  0.369819
0.49793  3.174128  0.368430
0.49994  3.170186  0.367059
0.50196  3.166370  0.365703
0.50400  3.162679  0.364359
0.50606  3.159109  0.363026
0.50814  3.155659  0.361701
0.51023  3.152327  0.360382
0.51234  3.149110  0.359067
0.51446  3.146007  0.357754
0.51660  3.143016  0.356441
0.51877  3.140136  0.355127
0.52095  3.137365  0.353807
0.52314  3.134702  0.352482
0.52536  3.132145  0.351148
0.52760  3.129693  0.349804
0.52985  3.127345  0.348447
0.53213  3.125100  0.347075
0.53442  3.122957  0.345686
0.53673  3.120914  0.344278
0.53907  3.118972  0.342849
0.54142  3.117128  0.341395
0.54379  3.115383  0.339916
0.54619  3.113735  0.338407
0.54861  3.112183  0.336868
0.55105  3.110728  0.335294
0.55351  3.109367  0.333685
0.55599  3.108101  0.332036
0.55849  3.106929  0.330345
0.56102  3.105850  0.328608
0.56357  3.104863  0.326824
0.56614  3.103969  0.324988
0.56874  3.103166  0.323098
0.57136  3.102453  0.321149
0.57401  3.101831  0.319138
0.57668  3.101299  0.317061
0.57937  3.100856  0.314915
0.58209  3.100501  0.312693
0.58484  3.100234  0.310393
0.58761  3.100054  0.308010
0.59041  3.099960  0.305537
0.59323  3.099952  0.302970
0.59608  3.100029  0.300302
0.59896  3.100189  0.297528
0.60187  3.100432  0.294640
0.60481  3.100757  0.291632
0.60777  3.101162  0.288495
0.61076  3.101645  0.285221
0.61379  3.102205  0.281801
0.61684  3.102839  0.278223
0.61993  3.103545  0.274479
0.62304  3.104320  0.270554
0.62619  3.104698  0.266507
0.62937  3.105574  0.262185
0.63258  3.106503  0.257639
0.63582  3.107313  0.252876
0.63910  3.108312  0.247824
0.64241  3.109334  0.242483
0.64576  3.110365  0.236828
0.64914  3.111384  0.230826
0.65255  3.112368  0.224441
0.65601  3.113281  0.217632
0.65950  3.114076  0.210350
0.66302  3.114687  0.202539
0.66659  3.115016  0.194138
0.67019  3.114915  0.185080
0.67383  3.114151  0.175314
0.67751  3.112340  0.164848
0.68124  3.108826  0.153911
0.68500  3.102542  0.143520
0.68881  3.092770  0.137463
0.69265  3.088371  0.144667
0.69655  3.111463  0.138977
0.70048  3.111315  0.102961
0.70446  3.092340  0.082623
0.70849  3.074398  0.073116
0.71256  3.059384  0.067922
0.71668  3.046612  0.064632
0.72084  3.035449  0.062306
0.72506  3.025469  0.060528
0.72932  3.016393  0.059089
0.73364  3.008029  0.057876
0.73801  3.000242  0.056819
0.74243  2.992935  0.055876
0.74690  2.986033  0.055020
0.75143  2.979480  0.054230
0.75601  2.973230  0.053494
0.76065  2.967248  0.052801
0.76534  2.961505  0.052144
0.77009  2.955976  0.051517
0.77491  2.950492  0.050909
0.77978  2.945340  0.050331
0.78472  2.939893  0.049752
0.78971  2.935070  0.049213
0.79478  2.930383  0.048689
0.79990  2.925444  0.048148
0.80510  2.921002  0.047650
0.81036  2.916670  0.047163
0.81569  2.912442  0.046686
0.82109  2.908312  0.046219
0.82657  2.904274  0.045761
0.83212  2.900323  0.045310
0.83774  2.896456  0.044868
0.84344  2.892669  0.044433
0.84921  2.888957  0.044004
0.85507  2.885317  0.043582
0.86101  2.881746  0.043166
0.86703  2.878241  0.042756
0.87314  2.874800  0.042352
0.87933  2.871420  0.041953
0.88561  2.868099  0.041559
0.89198  2.864835  0.041169
0.89844  2.861625  0.040785
0.90500  2.858468  0.040405
0.91166  2.855363  0.040029
0.91841  2.852307  0.039658
0.92526  2.849299  0.039291
0.93222  2.846338  0.038928
0.93928  2.843422  0.038568
0.94645  2.840550  0.038212
0.95373  2.837720  0.037860
0.96113  2.834933  0.037512
0.96863  2.832185  0.037166
0.97626  2.829477  0.036825
0.98401  2.826808  0.036486
0.99188  2.824176  0.036150
0.99988  2.821581  0.035818
1.00801  2.819022  0.035489
1.01627  2.816498  0.035162
1.02467  2.814008  0.034839
1.03321  2.811551  0.034518
1.04189  2.809128  0.034200
1.05072  2.806736  0.033885
1.05970  2.804376  0.033572
1.06884  2.802047  0.033262
1.07813  2.799748  0.032954
1.08759  2.797479  0.032649
1.09721  2.795238  0.032347
1.10701  2.793027  0.032046
1.11698  2.790844  0.031748
1.12714  2.788688  0.031452
