; From SOPRA S.A. http://www.sopra-sa.com/indices.htm
; Filename    Symbol               Range (nm)     Description
; ZNCDTE10    CdTe                229     1127    Zinc Cadmium Telluride (100% Cd)
; lambda/um       n         k
0.22960  1.843483  2.423274
0.23003  1.862273  2.429003
0.23046  1.881485  2.434325
0.23088  1.901112  2.439209
0.23132  1.921141  2.443622
0.23175  1.941563  2.447533
0.23218  1.962359  2.450910
0.23262  1.983515  2.453719
0.23305  2.005007  2.455929
0.23349  2.026813  2.457508
0.23393  2.048903  2.458424
0.23438  2.071250  2.458647
0.23482  2.093817  2.458148
0.23527  2.116571  2.456901
0.23571  2.139469  2.454880
0.23616  2.162470  2.452063
0.23661  2.185526  2.448430
0.23707  2.208592  2.443966
0.23752  2.231614  2.438659
0.23798  2.254541  2.432498
0.23843  2.277316  2.425481
0.23889  2.299887  2.417608
0.23935  2.322194  2.408884
0.23982  2.344183  2.399319
0.24028  2.365795  2.388929
0.24075  2.386977  2.377733
0.24122  2.407674  2.365757
0.24169  2.427832  2.353032
0.24216  2.447404  2.339592
0.24263  2.466341  2.325476
0.24311  2.484603  2.310727
0.24359  2.502148  2.295394
0.24407  2.518944  2.279524
0.24455  2.534959  2.263172
0.24503  2.550169  2.246392
0.24552  2.564552  2.229240
0.24600  2.578096  2.211773
0.24649  2.590788  2.194049
0.24698  2.602627  2.176124
0.24748  2.613608  2.158057
0.24797  2.623740  2.139902
0.24847  2.633029  2.121713
0.24897  2.641490  2.103542
0.24947  2.649139  2.085439
0.24997  2.655997  2.067450
0.25048  2.662086  2.049619
0.25098  2.667433  2.031986
0.25149  2.672065  2.014591
0.25200  2.676013  1.997466
0.25252  2.679090  1.980918
0.25303  2.681761  1.964429
0.25355  2.683845  1.948295
0.25407  2.685375  1.932538
0.25459  2.686385  1.917176
0.25511  2.686909  1.902225
0.25564  2.686981  1.887698
0.25617  2.686634  1.873605
0.25670  2.685900  1.859954
0.25723  2.684810  1.846752
0.25777  2.683396  1.834000
0.25830  2.681686  1.821702
0.25884  2.679709  1.809857
0.25938  2.677492  1.798466
0.25993  2.675062  1.787524
0.26047  2.672443  1.777028
0.26102  2.669659  1.766972
0.26157  2.666732  1.757351
0.26213  2.663682  1.748158
0.26268  2.660531  1.739386
0.26324  2.657297  1.731027
0.26380  2.653996  1.723072
0.26436  2.650646  1.715512
0.26493  2.647262  1.708339
0.26549  2.643858  1.701544
0.26606  2.640447  1.695116
0.26663  2.637042  1.689046
0.26721  2.633653  1.683325
0.26779  2.630293  1.677943
0.26837  2.626970  1.672891
0.26895  2.623693  1.668160
0.26953  2.620471  1.663740
0.27012  2.617312  1.659623
0.27071  2.614222  1.655798
0.27130  2.611208  1.652259
0.27190  2.608275  1.648996
0.27249  2.605430  1.646001
0.27310  2.602677  1.643268
0.27370  2.600020  1.640787
0.27430  2.597464  1.638551
0.27491  2.595012  1.636555
0.27552  2.592669  1.634790
0.27614  2.590436  1.633251
0.27675  2.588317  1.631932
0.27737  2.586314  1.630827
0.27799  2.584431  1.629931
0.27862  2.582669  1.629238
0.27925  2.581029  1.628744
0.27988  2.579515  1.628444
0.28051  2.578127  1.628335
0.28115  2.576869  1.628413
0.28178  2.575740  1.628675
0.28243  2.574744  1.629117
0.28307  2.573882  1.629738
0.28372  2.573154  1.630535
0.28437  2.572564  1.631506
0.28502  2.572113  1.632651
0.28568  2.571803  1.633968
0.28634  2.571636  1.635457
0.28700  2.571614  1.637119
0.28767  2.571741  1.638953
0.28834  2.572018  1.640962
0.28901  2.572450  1.643147
0.28969  2.573040  1.645510
0.29036  2.573792  1.648056
0.29105  2.574712  1.650786
0.29173  2.575806  1.653707
0.29242  2.577081  1.656823
0.29311  2.578545  1.660141
0.29380  2.580208  1.663667
0.29450  2.582081  1.667410
0.29520  2.584179  1.671377
0.29591  2.586517  1.675577
0.29662  2.589115  1.680021
0.29733  2.591995  1.684716
0.29804  2.595184  1.689673
0.29876  2.598714  1.694898
0.29948  2.602620  1.700398
0.30021  2.606943  1.706177
0.30093  2.611732  1.712234
0.30167  2.617040  1.718563
0.30240  2.622925  1.725150
0.30314  2.629451  1.731973
0.30389  2.636686  1.738999
0.30463  2.644700  1.746183
0.30538  2.653564  1.753464
0.30614  2.663347  1.760766
0.30689  2.674112  1.767996
0.30766  2.685913  1.775043
0.30842  2.698792  1.781781
0.30919  2.712771  1.788065
0.30996  2.727853  1.793740
0.31074  2.744013  1.798638
0.31152  2.761197  1.802587
0.31231  2.779320  1.805417
0.31309  2.798259  1.806963
0.31389  2.817862  1.807078
0.31468  2.837943  1.805635
0.31548  2.858287  1.802540
0.31629  2.878660  1.797737
0.31710  2.898813  1.791213
0.31791  2.918498  1.782997
0.31873  2.937469  1.773171
0.31955  2.955502  1.761854
0.32038  2.972396  1.749209
0.32121  2.987988  1.735426
0.32204  3.002151  1.720721
0.32288  3.014803  1.705320
0.32372  3.025903  1.689452
0.32457  3.035093  1.674163
0.32542  3.043123  1.658044
0.32628  3.049699  1.642087
0.32714  3.054907  1.626461
0.32800  3.058853  1.611311
0.32887  3.061651  1.596756
0.32975  3.063423  1.582893
0.33063  3.064292  1.569796
0.33151  3.064378  1.557518
0.33240  3.063796  1.546095
0.33329  3.062653  1.535552
0.33419  3.061049  1.525899
0.33510  3.059077  1.517139
0.33600  3.056817  1.509269
0.33692  3.054344  1.502285
0.33783  3.051725  1.496176
0.33876  3.049020  1.490937
0.33969  3.046283  1.486561
0.34062  3.043567  1.483045
0.34156  3.040920  1.480389
0.34250  3.038391  1.478597
0.34345  3.036030  1.477680
0.34440  3.033892  1.477651
0.34536  3.032037  1.478528
0.34633  3.030533  1.480331
0.34730  3.029458  1.483082
0.34827  3.028903  1.486802
0.34925  3.028973  1.491508
0.35024  3.029788  1.497212
0.35123  3.031484  1.503912
0.35223  3.034213  1.511592
0.35323  3.038141  1.520216
0.35424  3.043448  1.529721
0.35526  3.050320  1.540013
0.35628  3.058948  1.550966
0.35731  3.069518  1.562411
0.35834  3.082207  1.574140
0.35938  3.097169  1.585904
0.36042  3.114530  1.597409
0.36147  3.134373  1.608328
0.36253  3.156735  1.618300
0.36359  3.181591  1.626943
0.36466  3.208850  1.633860
0.36574  3.238352  1.638658
0.36682  3.269859  1.640959
0.36791  3.303063  1.640418
0.36900  3.337588  1.636737
0.37011  3.373001  1.629683
0.37121  3.408822  1.619102
0.37233  3.444546  1.604923
0.37345  3.479657  1.587168
0.37458  3.513656  1.565953
0.37571  3.546067  1.541481
0.37685  3.576472  1.514032
0.37800  3.604235  1.483990
0.37916  3.629630  1.451661
0.38032  3.652173  1.417508
0.38149  3.671014  1.381771
0.38267  3.687572  1.345260
0.38386  3.701126  1.308181
0.38505  3.711756  1.270907
0.38625  3.719589  1.233771
0.38745  3.724790  1.197065
0.38867  3.727551  1.161033
0.38989  3.728076  1.125876
0.39112  3.726582  1.091753
0.39236  3.723281  1.058784
0.39360  3.718383  1.027052
0.39486  3.712089  0.996614
0.39612  3.704586  0.967500
0.39739  3.696049  0.939716
0.39867  3.686637  0.913254
0.39995  3.676496  0.888092
0.40125  3.665756  0.864198
0.40255  3.654532  0.841529
0.40386  3.642928  0.820041
0.40518  3.631034  0.799683
0.40651  3.618930  0.780404
0.40785  3.606683  0.762150
0.40919  3.594355  0.744868
0.41055  3.581997  0.728505
0.41191  3.569652  0.713011
0.41328  3.557358  0.698334
0.41467  3.545149  0.684429
0.41606  3.533050  0.671248
0.41746  3.521084  0.658748
0.41887  3.509270  0.646887
0.42029  3.497624  0.635627
0.42172  3.486159  0.624929
0.42316  3.474884  0.614759
0.42461  3.463808  0.605083
0.42607  3.452936  0.595872
0.42754  3.442274  0.587094
0.42901  3.431825  0.578723
0.43050  3.421590  0.570733
0.43200  3.411572  0.563099
0.43351  3.401769  0.555799
0.43504  3.392181  0.548810
0.43657  3.382808  0.542113
0.43811  3.373648  0.535689
0.43966  3.364698  0.529518
0.44123  3.355956  0.523584
0.44280  3.347420  0.517871
0.44439  3.339085  0.512364
0.44599  3.330948  0.507046
0.44760  3.323007  0.501905
0.44922  3.315256  0.496927
0.45086  3.307692  0.492098
0.45250  3.300310  0.487406
0.45416  3.293106  0.482839
0.45583  3.286075  0.478384
0.45751  3.279210  0.474030
0.45920  3.272507  0.469764
0.46091  3.265958  0.465575
0.46263  3.259557  0.461451
0.46436  3.253293  0.457378
0.46611  3.247158  0.453345
0.46787  3.241138  0.449338
0.46964  3.235216  0.445343
0.47143  3.229371  0.441346
0.47323  3.223571  0.437333
0.47504  3.217270  0.433444
0.47687  3.211133  0.429478
0.47871  3.204913  0.425493
0.48056  3.198223  0.421681
0.48243  3.190644  0.418545
0.48432  3.181811  0.418034
0.48622  3.177135  0.425612
0.48813  3.191426  0.421706
0.49006  3.185206  0.403168
0.49200  3.173506  0.395942
0.49396  3.163843  0.392528
0.49594  3.155662  0.390293
0.49793  3.148419  0.388530
0.49994  3.141815  0.387001
0.50196  3.135560  0.385610
0.50400  3.129435  0.384319
0.50606  3.124030  0.383095
0.50814  3.118879  0.381925
0.51023  3.113954  0.380799
0.51234  3.109232  0.379713
0.51446  3.104697  0.378661
0.51660  3.100337  0.377640
0.51877  3.096140  0.376646
0.52095  3.092098  0.375678
0.52314  3.088204  0.374733
0.52536  3.084452  0.373808
0.52760  3.080837  0.372902
0.52985  3.077355  0.372012
0.53213  3.074001  0.371137
0.53442  3.070771  0.370275
0.53673  3.067664  0.369423
0.53907  3.064676  0.368581
0.54142  3.061805  0.367747
0.54379  3.059048  0.366918
0.54619  3.056404  0.366093
0.54861  3.053870  0.365271
0.55105  3.051445  0.364449
0.55351  3.049128  0.363626
0.55599  3.046917  0.362801
0.55849  3.044810  0.361971
0.56102  3.042807  0.361134
0.56357  3.040907  0.360290
0.56614  3.039108  0.359436
0.56874  3.037409  0.358570
0.57136  3.035810  0.357691
0.57401  3.034311  0.356796
0.57668  3.032909  0.355884
0.57937  3.031606  0.354953
0.58209  3.030399  0.354001
0.58484  3.029289  0.353025
0.58761  3.028275  0.352024
0.59041  3.027357  0.350996
0.59323  3.026534  0.349937
0.59608  3.025806  0.348847
0.59896  3.025173  0.347722
0.60187  3.024634  0.346560
0.60481  3.024189  0.345358
0.60777  3.023838  0.344114
0.61076  3.023581  0.342825
0.61379  3.023417  0.341488
0.61684  3.023347  0.340100
0.61993  3.023371  0.338658
0.62304  3.023487  0.337158
0.62619  3.023697  0.335597
0.62937  3.024001  0.333972
0.63258  3.024397  0.332278
0.63582  3.024887  0.330512
0.63910  3.025470  0.328668
0.64241  3.026145  0.326744
0.64576  3.026915  0.324732
0.64914  3.027777  0.322630
0.65255  3.028732  0.320431
0.65601  3.029779  0.318128
0.65950  3.030920  0.315717
0.66302  3.032153  0.313191
0.66659  3.033478  0.310541
0.67019  3.034895  0.307761
0.67383  3.036404  0.304842
0.67751  3.038003  0.301775
0.68124  3.039692  0.298551
0.68500  3.041471  0.295157
0.68881  3.043336  0.291583
0.69265  3.045289  0.287816
0.69655  3.047325  0.283841
0.70048  3.049443  0.279642
0.70446  3.051640  0.275203
0.70849  3.053912  0.270501
0.71256  3.056253  0.265516
0.71668  3.058658  0.260222
0.72084  3.060637  0.254664
0.72506  3.063105  0.248666
0.72932  3.065432  0.242286
0.73364  3.067914  0.235425
0.73801  3.070370  0.228055
0.74243  3.072759  0.220111
0.74690  3.075024  0.211515
0.75143  3.077079  0.202170
0.75601  3.078792  0.191963
0.76065  3.079947  0.180758
0.76534  3.080168  0.168418
0.77009  3.078751  0.154895
0.77491  3.074293  0.140667
0.77978  3.064388  0.129013
0.78472  3.055645  0.134139
0.78971  3.083195  0.123004
0.79478  3.071242  0.082795
0.79990  3.048007  0.067113
0.80510  3.029401  0.060415
0.81036  3.014394  0.056750
0.81569  3.001745  0.054373
0.82109  2.990716  0.052649
0.82657  2.980498  0.051269
0.83212  2.971550  0.050157
0.83774  2.963316  0.049203
0.84344  2.955662  0.048361
0.84921  2.948492  0.047601
0.85507  2.941734  0.046905
0.86101  2.935177  0.046250
0.86703  2.929094  0.045644
0.87314  2.922826  0.045049
0.87933  2.917285  0.044505
0.88561  2.911960  0.043984
0.89198  2.906832  0.043482
0.89844  2.901882  0.042996
0.90500  2.897096  0.042526
0.91166  2.892462  0.042068
0.91841  2.887967  0.041622
0.92526  2.883603  0.041187
0.93222  2.879361  0.040761
0.93928  2.875232  0.040344
0.94645  2.871211  0.039935
0.95373  2.867290  0.039534
0.96113  2.863465  0.039139
0.96863  2.859729  0.038751
0.97626  2.856079  0.038369
0.98401  2.852510  0.037993
0.99188  2.849018  0.037622
0.99988  2.845600  0.037256
1.00801  2.842253  0.036895
1.01627  2.838974  0.036539
1.02467  2.835760  0.036187
1.03321  2.832607  0.035840
1.04189  2.829515  0.035496
1.05072  2.826480  0.035156
1.05970  2.823501  0.034820
1.06884  2.820576  0.034488
1.07813  2.817702  0.034159
1.08759  2.814878  0.033834
1.09721  2.812104  0.033511
1.10701  2.809376  0.033192
1.11698  2.806693  0.032876
1.12714  2.804055  0.032563
