; From SOPRA S.A. http://www.sopra-sa.com/indices.htm
; Filename    Symbol               Range (nm)     Description
; ZNSETE0     ZnSe                196     1771    Zinc Selenium Telluride (0% Te)     *
; lambda/um       n         k
0.19680  1.346261  2.253786
0.19719  1.350979  2.260969
0.19759  1.355785  2.268240
0.19798  1.360679  2.275598
0.19838  1.365666  2.283047
0.19877  1.370749  2.290586
0.19917  1.375931  2.298218
0.19957  1.381217  2.305945
0.19998  1.386610  2.313766
0.20038  1.392115  2.321685
0.20079  1.397736  2.329701
0.20119  1.403477  2.337817
0.20160  1.409343  2.346033
0.20201  1.415339  2.354351
0.20242  1.421470  2.362772
0.20284  1.427741  2.371298
0.20325  1.434158  2.379928
0.20367  1.440727  2.388665
0.20409  1.447454  2.397508
0.20451  1.454346  2.406459
0.20493  1.461408  2.415519
0.20536  1.468648  2.424686
0.20578  1.476074  2.433964
0.20621  1.483692  2.443351
0.20664  1.491512  2.452847
0.20707  1.499540  2.462451
0.20751  1.507786  2.472165
0.20794  1.516259  2.481986
0.20838  1.524968  2.491915
0.20882  1.533922  2.501948
0.20926  1.543133  2.512085
0.20970  1.552610  2.522324
0.21014  1.562365  2.532662
0.21059  1.572409  2.543096
0.21104  1.582754  2.553623
0.21149  1.593411  2.564238
0.21194  1.604223  2.575269
0.21239  1.615546  2.586046
0.21285  1.627220  2.596896
0.21331  1.639261  2.607811
0.21377  1.651683  2.618783
0.21423  1.664500  2.629804
0.21469  1.677728  2.640864
0.21516  1.691383  2.651952
0.21563  1.705479  2.663056
0.21610  1.720033  2.674162
0.21657  1.735061  2.685256
0.21704  1.750580  2.696323
0.21752  1.766605  2.707342
0.21800  1.783154  2.718296
0.21848  1.800241  2.729163
0.21896  1.817882  2.739919
0.21944  1.836095  2.750540
0.21993  1.854891  2.760999
0.22042  1.874287  2.771265
0.22091  1.894294  2.781308
0.22140  1.914925  2.791092
0.22190  1.936189  2.800583
0.22239  1.958095  2.809740
0.22289  1.980651  2.818523
0.22340  2.003857  2.826888
0.22390  2.027717  2.834789
0.22441  2.052230  2.842179
0.22492  2.077388  2.849005
0.22543  2.103184  2.855217
0.22594  2.129602  2.860760
0.22646  2.156626  2.865580
0.22698  2.184232  2.869620
0.22750  2.212389  2.872824
0.22802  2.241067  2.875134
0.22854  2.270220  2.876496
0.22907  2.299805  2.876854
0.22960  2.329767  2.876156
0.23013  2.360046  2.874353
0.23067  2.390576  2.871399
0.23121  2.421283  2.867253
0.23175  2.452090  2.861878
0.23229  2.482914  2.855247
0.23284  2.513664  2.847337
0.23338  2.544250  2.838135
0.23393  2.574571  2.827636
0.23449  2.604532  2.815845
0.23504  2.634034  2.802775
0.23560  2.662811  2.788705
0.23616  2.691093  2.773166
0.23673  2.718623  2.756456
0.23729  2.745310  2.738628
0.23786  2.771071  2.719747
0.23843  2.795825  2.699886
0.23901  2.819503  2.679126
0.23958  2.842042  2.657555
0.24016  2.863389  2.635265
0.24075  2.883502  2.612353
0.24133  2.902348  2.588920
0.24192  2.919905  2.565066
0.24251  2.936160  2.540895
0.24311  2.951113  2.516506
0.24371  2.964771  2.491997
0.24431  2.977150  2.467464
0.24491  2.988275  2.442999
0.24552  2.998179  2.418687
0.24612  3.006902  2.394608
0.24674  3.014486  2.370837
0.24735  3.020983  2.347442
0.24797  3.026445  2.324484
0.24859  3.030928  2.302018
0.24922  3.034492  2.280092
0.24984  3.037194  2.258748
0.25048  3.039096  2.238022
0.25111  3.040258  2.217941
0.25175  3.040739  2.198532
0.25239  3.040599  2.179811
0.25303  3.039895  2.161794
0.25368  3.038681  2.144490
0.25433  3.037012  2.127904
0.25498  3.034940  2.112040
0.25564  3.032511  2.096895
0.25630  3.029774  2.082467
0.25696  3.026773  2.068749
0.25763  3.023547  2.055734
0.25830  3.020138  2.043412
0.25898  3.016579  2.031772
0.25965  3.012907  2.020803
0.26034  3.009152  2.010491
0.26102  3.005344  2.000824
0.26171  3.001511  1.991789
0.26240  2.997677  1.983372
0.26310  2.993866  1.975559
0.26380  2.990100  1.968338
0.26450  2.986399  1.961695
0.26521  2.982782  1.955620
0.26592  2.979266  1.950099
0.26663  2.975869  1.945123
0.26735  2.972605  1.940682
0.26808  2.969488  1.936767
0.26880  2.966534  1.933370
0.26953  2.963756  1.930486
0.27027  2.961167  1.928110
0.27101  2.958781  1.926238
0.27175  2.956610  1.924868
0.27249  2.954670  1.924001
0.27325  2.952976  1.923638
0.27400  2.951542  1.923782
0.27476  2.950387  1.924439
0.27552  2.949530  1.925617
0.27629  2.948992  1.927327
0.27706  2.948799  1.929580
0.27784  2.948980  1.932394
0.27862  2.949567  1.935785
0.27940  2.950600  1.939775
0.28019  2.952125  1.944388
0.28099  2.954200  1.949652
0.28178  2.956891  1.955595
0.28259  2.960282  1.962248
0.28339  2.964474  1.969643
0.28421  2.969592  1.977806
0.28502  2.975791  1.986755
0.28584  2.983726  1.997189
0.28667  2.992728  2.007637
0.28750  3.002915  2.018147
0.28834  3.015658  2.029856
0.28918  3.030746  2.041881
0.29002  3.048479  2.053894
0.29087  3.069122  2.065455
0.29173  3.092862  2.076003
0.29259  3.119760  2.084872
0.29346  3.149710  2.091318
0.29433  3.182397  2.094571
0.29520  3.217270  2.093901
0.29608  3.253557  2.088697
0.29697  3.290283  2.078557
0.29786  3.326355  2.063349
0.29876  3.360648  2.043258
0.29966  3.392125  2.018777
0.30057  3.419931  1.990666
0.30148  3.443469  1.959866
0.30240  3.462430  1.927401
0.30333  3.476360  1.894945
0.30426  3.486318  1.862094
0.30519  3.492275  1.830256
0.30614  3.494730  1.800017
0.30708  3.494234  1.771795
0.30804  3.491340  1.745852
0.30900  3.486572  1.722326
0.30996  3.480398  1.701251
0.31093  3.473229  1.682597
0.31191  3.465411  1.666279
0.31290  3.457230  1.652192
0.31389  3.448917  1.640213
0.31488  3.440659  1.630221
0.31589  3.432600  1.622103
0.31690  3.424854  1.615759
0.31791  3.417512  1.611109
0.31893  3.410647  1.608095
0.31996  3.404325  1.606685
0.32100  3.398611  1.606874
0.32204  3.393577  1.608689
0.32309  3.389317  1.612183
0.32414  3.385956  1.617441
0.32521  3.383667  1.624569
0.32628  3.382688  1.633685
0.32735  3.383334  1.644907
0.32844  3.386017  1.658321
0.32953  3.391252  1.673954
0.33063  3.399656  1.691725
0.33173  3.411932  1.711404
0.33285  3.428832  1.732556
0.33397  3.451100  1.754507
0.33510  3.479392  1.776316
0.33623  3.514186  1.796782
0.33737  3.555678  1.814473
0.33853  3.603701  1.827814
0.33969  3.657639  1.835186
0.34085  3.716413  1.835084
0.34203  3.778498  1.826264
0.34321  3.842011  1.807905
0.34440  3.904862  1.779713
0.34560  3.964935  1.741986
0.34681  4.020285  1.695585
0.34803  4.069310  1.641840
0.34925  4.110876  1.582395
0.35049  4.144359  1.519027
0.35173  4.169615  1.453491
0.35298  4.186920  1.387374
0.35424  4.196850  1.322020
0.35551  4.200182  1.258486
0.35679  4.197789  1.197544
0.35808  4.190563  1.139709
0.35938  4.179361  1.085278
0.36068  4.164300  1.034230
0.36200  4.147418  0.986864
0.36333  4.128630  0.942928
0.36466  4.108443  0.902265
0.36601  4.087272  0.864680
0.36736  4.065458  0.829957
0.36873  4.043276  0.797877
0.37011  4.020671  0.768221
0.37149  3.997987  0.740889
0.37289  3.975766  0.715459
0.37429  3.953634  0.691901
0.37571  3.931895  0.669960
0.37714  3.910455  0.649529
0.37858  3.889308  0.630487
0.38003  3.868412  0.612752
0.38149  3.847683  0.596319
0.38297  3.827001  0.581343
0.38445  3.806315  0.568368
0.38595  3.786376  0.558745
0.38745  3.771553  0.553200
0.38897  3.765911  0.541958
0.39050  3.753804  0.520496
0.39205  3.734042  0.503074
0.39360  3.713933  0.490387
0.39517  3.695025  0.480123
0.39675  3.677281  0.471181
0.39835  3.660507  0.463086
0.39995  3.644545  0.455611
0.40157  3.629285  0.448631
0.40320  3.614647  0.442067
0.40485  3.600572  0.435865
0.40651  3.586895  0.429982
0.40818  3.573829  0.424389
0.40987  3.560862  0.419057
0.41157  3.548695  0.413963
0.41328  3.536931  0.409085
0.41501  3.525550  0.404403
0.41676  3.514537  0.399901
0.41852  3.503877  0.395563
0.42029  3.493555  0.391377
0.42208  3.483560  0.387328
0.42388  3.473880  0.383405
0.42570  3.464504  0.379596
0.42754  3.455423  0.375890
0.42939  3.446625  0.372279
0.43125  3.438104  0.368752
0.43314  3.429851  0.365301
0.43504  3.421857  0.361916
0.43695  3.414116  0.358591
0.43889  3.406620  0.355316
0.44084  3.399362  0.352086
0.44280  3.392337  0.348891
0.44479  3.385538  0.345727
0.44679  3.378959  0.342584
0.44882  3.372595  0.339457
0.45086  3.366441  0.336340
0.45291  3.360492  0.333225
0.45499  3.354742  0.330106
0.45709  3.349187  0.326977
0.45920  3.343822  0.323831
0.46134  3.338644  0.320661
0.46350  3.333647  0.317461
0.46567  3.328827  0.314223
0.46787  3.324181  0.310942
0.47009  3.319704  0.307609
0.47232  3.315392  0.304218
0.47458  3.311241  0.300760
0.47687  3.307247  0.297227
0.47917  3.303405  0.293611
0.48150  3.299273  0.289971
0.48384  3.295703  0.286164
0.48622  3.292269  0.282246
0.48861  3.288816  0.278229
0.49103  3.285630  0.274055
0.49347  3.282561  0.269734
0.49594  3.279601  0.265250
0.49843  3.276740  0.260591
0.50095  3.273968  0.255737
0.50349  3.271271  0.250670
0.50606  3.268633  0.245370
0.50866  3.266035  0.239813
0.51128  3.263451  0.233973
0.51393  3.260849  0.227821
0.51660  3.258183  0.221325
0.51931  3.255395  0.214452
0.52204  3.252402  0.207169
0.52480  3.249083  0.199449
0.52760  3.245260  0.191287
0.53042  3.240662  0.182743
0.53327  3.234874  0.174048
0.53615  3.227309  0.165912
0.53907  3.217585  0.160368
0.54201  3.208319  0.162744
0.54499  3.214856  0.169655
0.54800  3.232270  0.151855
0.55105  3.225029  0.122457
0.55412  3.207482  0.105295
0.55724  3.190356  0.095986
0.56039  3.175240  0.090351
0.56357  3.161868  0.086522
0.56679  3.149837  0.083673
0.57005  3.138835  0.081407
0.57334  3.128642  0.079511
0.57668  3.119100  0.077867
0.58005  3.110094  0.076402
0.58346  3.101540  0.075070
0.58691  3.093373  0.073839
0.59041  3.085543  0.072690
0.59394  3.078009  0.071605
0.59752  3.070739  0.070575
0.60114  3.063707  0.069591
0.60481  3.056892  0.068645
0.60852  3.050273  0.067735
0.61227  3.043836  0.066854
0.61608  3.037567  0.066000
0.61993  3.031455  0.065170
0.62382  3.025342  0.064356
0.62777  3.019518  0.063569
0.63177  3.013822  0.062801
0.63582  3.007806  0.062032
0.63992  3.002362  0.061298
0.64408  2.997028  0.060580
0.64829  2.991796  0.059875
0.65255  2.986664  0.059184
0.65688  2.981626  0.058505
0.66125  2.976678  0.057838
0.66569  2.971818  0.057183
0.67019  2.967041  0.056538
0.67475  2.962345  0.055904
0.67937  2.957727  0.055280
0.68406  2.953185  0.054665
0.68881  2.948715  0.054060
0.69362  2.944316  0.053463
0.69851  2.939986  0.052875
0.70346  2.935721  0.052296
0.70849  2.931522  0.051725
0.71358  2.927385  0.051161
0.71875  2.923310  0.050605
0.72400  2.919293  0.050056
0.72932  2.915335  0.049515
0.73473  2.911434  0.048980
0.74021  2.907587  0.048452
0.74578  2.903795  0.047931
0.75143  2.899674  0.047392
0.75716  2.895987  0.046884
0.76299  2.892350  0.046381
0.76890  2.888763  0.045885
0.77491  2.885224  0.045394
0.78101  2.881733  0.044909
0.78721  2.878287  0.044429
0.79351  2.874887  0.043955
0.79990  2.871532  0.043486
0.80641  2.868220  0.043022
0.81302  2.864951  0.042563
0.81974  2.861724  0.042109
0.82657  2.858538  0.041660
0.83351  2.855393  0.041215
0.84058  2.852288  0.040775
0.84776  2.849223  0.040340
0.85507  2.846196  0.039908
0.86251  2.843207  0.039482
0.87007  2.840255  0.039059
0.87777  2.837340  0.038640
0.88561  2.834462  0.038226
0.89359  2.831619  0.037815
0.90171  2.828811  0.037408
0.90998  2.826038  0.037006
0.91841  2.823299  0.036606
0.92699  2.820594  0.036211
0.93574  2.817922  0.035819
0.94465  2.815282  0.035430
0.95373  2.812675  0.035045
0.96299  2.810100  0.034663
0.97243  2.807556  0.034285
0.98206  2.805043  0.033910
0.99188  2.802562  0.033538
1.00190  2.800110  0.033169
1.01212  2.797688  0.032803
1.02256  2.795295  0.032440
1.03321  2.792932  0.032080
1.04409  2.790598  0.031723
1.05519  2.788292  0.031369
1.06654  2.786014  0.031018
1.07813  2.783764  0.030669
1.08998  2.781542  0.030323
1.10209  2.779346  0.029980
1.11447  2.777178  0.029639
1.12714  2.775037  0.029301
1.14009  2.772921  0.028966
1.15335  2.770832  0.028632
1.16692  2.768769  0.028301
1.18081  2.766731  0.027973
1.19504  2.764719  0.027647
1.20961  2.762731  0.027323
1.22455  2.760768  0.027001
1.23985  2.758830  0.026682
1.25555  2.756916  0.026365
1.27164  2.755027  0.026049
1.28816  2.753161  0.025736
1.30511  2.751319  0.025425
1.32251  2.749500  0.025116
1.34038  2.747704  0.024809
1.35874  2.745932  0.024504
1.37761  2.744182  0.024201
1.39702  2.742455  0.023899
1.41697  2.740751  0.023600
1.43751  2.739068  0.023302
1.45865  2.737408  0.023006
1.48042  2.735770  0.022712
1.50285  2.734153  0.022419
1.52597  2.732558  0.022128
1.54981  2.730985  0.021839
1.57441  2.729432  0.021551
1.59981  2.727901  0.021265
1.62604  2.726391  0.020980
1.65314  2.724901  0.020697
1.68116  2.723432  0.020416
1.71014  2.721984  0.020136
1.74014  2.720556  0.019857
1.77122  2.719148  0.019580
