; From SOPRA S.A. http://www.sopra-sa.com/indices.htm
; Filename    Symbol               Range (nm)     Description
; ZNSETE7     ZnSe0.3Te0.7        196     1771    Zinc Selenium Telluride (70% Te)    *
; lambda/um       n         k
0.19680  2.230973  2.488318
0.19719  2.252216  2.475127
0.19759  2.272996  2.461229
0.19798  2.293270  2.446649
0.19838  2.313002  2.431411
0.19877  2.332152  2.415545
0.19917  2.350686  2.399081
0.19957  2.368572  2.382054
0.19998  2.385778  2.364500
0.20038  2.402279  2.346457
0.20079  2.418047  2.327967
0.20119  2.433062  2.309071
0.20160  2.447307  2.289811
0.20201  2.460767  2.270231
0.20242  2.473428  2.250377
0.20284  2.485284  2.230292
0.20325  2.496329  2.210022
0.20367  2.506560  2.189611
0.20409  2.515980  2.169103
0.20451  2.524592  2.148539
0.20493  2.532403  2.127964
0.20536  2.539422  2.107418
0.20578  2.545663  2.086938
0.20621  2.551138  2.066563
0.20664  2.555650  2.046604
0.20707  2.559642  2.026547
0.20751  2.562922  2.006695
0.20794  2.565513  1.987080
0.20838  2.567436  1.967728
0.20882  2.568714  1.948665
0.20926  2.569372  1.929917
0.20970  2.569434  1.911502
0.21014  2.568926  1.893442
0.21059  2.567873  1.875754
0.21104  2.566301  1.858454
0.21149  2.564234  1.841556
0.21194  2.561700  1.825072
0.21239  2.558722  1.809013
0.21285  2.555325  1.793387
0.21331  2.551534  1.778202
0.21377  2.547374  1.763466
0.21423  2.542866  1.749181
0.21469  2.538035  1.735353
0.21516  2.532902  1.721984
0.21563  2.527488  1.709075
0.21610  2.521814  1.696628
0.21657  2.515900  1.684642
0.21704  2.509766  1.673117
0.21752  2.503430  1.662053
0.21800  2.496908  1.651445
0.21848  2.490220  1.641293
0.21896  2.483381  1.631593
0.21944  2.476405  1.622342
0.21993  2.469309  1.613538
0.22042  2.462107  1.605175
0.22091  2.454811  1.597250
0.22140  2.447436  1.589759
0.22190  2.439993  1.582698
0.22239  2.432494  1.576063
0.22289  2.424950  1.569849
0.22340  2.417372  1.564052
0.22390  2.409771  1.558668
0.22441  2.402155  1.553692
0.22492  2.394535  1.549122
0.22543  2.386919  1.544952
0.22594  2.379317  1.541179
0.22646  2.371735  1.537800
0.22698  2.364183  1.534810
0.22750  2.356668  1.532208
0.22802  2.349198  1.529989
0.22854  2.341780  1.528151
0.22907  2.334421  1.526692
0.22960  2.327128  1.525610
0.23013  2.319909  1.524901
0.23067  2.312769  1.524566
0.23121  2.305717  1.524601
0.23175  2.298759  1.525007
0.23229  2.291903  1.525781
0.23284  2.285154  1.526924
0.23338  2.278521  1.528436
0.23393  2.272012  1.530315
0.23449  2.265633  1.532563
0.23504  2.259392  1.535180
0.23560  2.253300  1.538166
0.23616  2.247363  1.541524
0.23673  2.241591  1.545253
0.23729  2.235994  1.549355
0.23786  2.230581  1.553833
0.23843  2.225364  1.558687
0.23901  2.220355  1.563921
0.23958  2.215564  1.569535
0.24016  2.211006  1.575532
0.24075  2.206694  1.581915
0.24133  2.202643  1.588684
0.24192  2.198869  1.595841
0.24251  2.195389  1.603389
0.24311  2.192221  1.611329
0.24371  2.189384  1.619660
0.24431  2.186898  1.628385
0.24491  2.184787  1.637501
0.24552  2.183072  1.647007
0.24612  2.181780  1.656900
0.24674  2.180936  1.667178
0.24735  2.180569  1.677835
0.24797  2.180708  1.688863
0.24859  2.181385  1.700252
0.24922  2.182631  1.711993
0.24984  2.184480  1.724069
0.25048  2.186968  1.736464
0.25111  2.190131  1.749157
0.25175  2.194006  1.762123
0.25239  2.198632  1.775334
0.25303  2.204043  1.788755
0.25368  2.210279  1.802348
0.25433  2.217377  1.816071
0.25498  2.225369  1.829871
0.25564  2.234288  1.843695
0.25630  2.244164  1.857479
0.25696  2.255019  1.871158
0.25763  2.266874  1.884656
0.25830  2.279739  1.897893
0.25898  2.293619  1.910786
0.25965  2.308508  1.923243
0.26034  2.324389  1.935172
0.26102  2.341235  1.946479
0.26171  2.359003  1.957066
0.26240  2.377638  1.966841
0.26310  2.397068  1.975712
0.26380  2.417210  1.983599
0.26450  2.437964  1.990427
0.26521  2.459215  1.996136
0.26592  2.480840  2.000683
0.26663  2.502704  2.004041
0.26735  2.524497  2.007145
0.26808  2.546427  2.008155
0.26880  2.568175  2.008036
0.26953  2.589608  2.006857
0.27027  2.610605  2.004708
0.27101  2.631065  2.001701
0.27175  2.650907  1.997966
0.27249  2.670072  1.993646
0.27325  2.688533  1.988892
0.27400  2.706287  1.983859
0.27476  2.723365  1.978698
0.27552  2.739822  1.973553
0.27629  2.755740  1.968556
0.27706  2.771227  1.963818
0.27784  2.786407  1.959432
0.27862  2.801422  1.955465
0.27940  2.816424  1.951957
0.28019  2.831572  1.948921
0.28099  2.847027  1.946340
0.28178  2.862947  1.944171
0.28259  2.879482  1.942340
0.28339  2.896772  1.940749
0.28421  2.914943  1.939272
0.28502  2.934097  1.937765
0.28584  2.954318  1.936059
0.28667  2.975661  1.933973
0.28750  2.998156  1.931311
0.28834  3.021798  1.927870
0.28918  3.046551  1.923441
0.29002  3.072343  1.917820
0.29087  3.099071  1.910807
0.29173  3.126597  1.902218
0.29259  3.154748  1.891887
0.29346  3.183328  1.879672
0.29433  3.212110  1.865462
0.29520  3.240850  1.849185
0.29608  3.269293  1.830800
0.29697  3.297174  1.810314
0.29786  3.324233  1.787773
0.29876  3.350219  1.763266
0.29966  3.374897  1.736916
0.30057  3.398058  1.708884
0.30148  3.419520  1.679359
0.30240  3.439136  1.648551
0.30333  3.456794  1.616686
0.30426  3.472420  1.583996
0.30519  3.485976  1.550717
0.30614  3.497458  1.517077
0.30708  3.506894  1.483295
0.30804  3.514337  1.449576
0.30900  3.519865  1.416105
0.30996  3.523574  1.383044
0.31093  3.525574  1.350541
0.31191  3.525984  1.318716
0.31290  3.524929  1.287670
0.31389  3.522538  1.257484
0.31488  3.518939  1.228221
0.31589  3.514255  1.199926
0.31690  3.507858  1.172336
0.31791  3.501372  1.146066
0.31893  3.494146  1.120816
0.31996  3.486282  1.096583
0.32100  3.477873  1.073355
0.32204  3.469006  1.051111
0.32309  3.459758  1.029831
0.32414  3.450202  1.009486
0.32521  3.440402  0.990045
0.32628  3.430415  0.971477
0.32735  3.420294  0.953746
0.32844  3.410084  0.936817
0.32953  3.399827  0.920657
0.33063  3.389558  0.905229
0.33173  3.379310  0.890498
0.33285  3.369110  0.876431
0.33397  3.358982  0.862994
0.33510  3.348948  0.850154
0.33623  3.339025  0.837881
0.33737  3.329230  0.826144
0.33853  3.319576  0.814915
0.33969  3.310074  0.804165
0.34085  3.300734  0.793868
0.34203  3.291563  0.783999
0.34321  3.282569  0.774533
0.34440  3.273757  0.765448
0.34560  3.265130  0.756722
0.34681  3.256692  0.748333
0.34803  3.248446  0.740262
0.34925  3.240392  0.732491
0.35049  3.232533  0.725000
0.35173  3.224868  0.717774
0.35298  3.217397  0.710796
0.35424  3.210120  0.704050
0.35551  3.203036  0.697521
0.35679  3.195713  0.691315
0.35808  3.188998  0.685183
0.35938  3.182471  0.679230
0.36068  3.176129  0.673442
0.36200  3.169970  0.667807
0.36333  3.163843  0.662356
0.36466  3.158037  0.656997
0.36601  3.152061  0.651751
0.36736  3.146604  0.646626
0.36873  3.141314  0.641602
0.37011  3.136189  0.636671
0.37149  3.131225  0.631823
0.37289  3.125985  0.627149
0.37429  3.121324  0.622443
0.37571  3.116812  0.617795
0.37714  3.112443  0.613197
0.37858  3.108212  0.608641
0.38003  3.104115  0.604119
0.38149  3.100144  0.599624
0.38297  3.096293  0.595149
0.38445  3.092555  0.590685
0.38595  3.088921  0.586227
0.38745  3.085381  0.581767
0.38897  3.081772  0.577333
0.39050  3.078383  0.572853
0.39205  3.075047  0.568356
0.39360  3.071745  0.563838
0.39517  3.068455  0.559300
0.39675  3.065147  0.554744
0.39835  3.061784  0.550180
0.39995  3.058318  0.545626
0.40157  3.054688  0.541118
0.40320  3.050815  0.536720
0.40485  3.046594  0.532546
0.40651  3.041896  0.528805
0.40818  3.036584  0.525885
0.40987  3.030604  0.524529
0.41157  3.023915  0.526734
0.41328  3.019690  0.533743
0.41501  3.024297  0.546244
0.41676  3.045662  0.553098
0.41852  3.070498  0.536192
0.42029  3.075739  0.507779
0.42208  3.067301  0.486498
0.42388  3.056843  0.473459
0.42570  3.047212  0.464990
0.42754  3.038944  0.458937
0.42939  3.031900  0.454189
0.43125  3.025848  0.450176
0.43314  3.020589  0.446590
0.43504  3.015972  0.443257
0.43695  3.011883  0.440071
0.43889  3.008238  0.436967
0.44084  3.004973  0.433900
0.44280  3.002037  0.430840
0.44479  2.999393  0.427764
0.44679  2.997009  0.424656
0.44882  2.994861  0.421500
0.45086  2.992927  0.418287
0.45291  2.991190  0.415006
0.45499  2.989635  0.411647
0.45709  2.988249  0.408203
0.45920  2.987021  0.404665
0.46134  2.985940  0.401026
0.46350  2.984997  0.397277
0.46567  2.984182  0.393410
0.46787  2.983487  0.389417
0.47009  2.982902  0.385289
0.47232  2.982420  0.381017
0.47458  2.982031  0.376592
0.47687  2.981726  0.372003
0.47917  2.981495  0.367241
0.48150  2.981326  0.362293
0.48384  2.981208  0.357148
0.48622  2.981126  0.351792
0.48861  2.981063  0.346213
0.49103  2.981003  0.340396
0.49347  2.980770  0.334333
0.49594  2.980644  0.327992
0.49843  2.980436  0.321366
0.50095  2.980108  0.314438
0.50349  2.979606  0.307192
0.50606  2.978415  0.299641
0.50866  2.977365  0.291731
0.51128  2.975884  0.283493
0.51393  2.973825  0.274955
0.51660  2.970991  0.266189
0.51931  2.966455  0.257637
0.52204  2.961083  0.249126
0.52480  2.953827  0.241550
0.52760  2.944231  0.236277
0.53042  2.932430  0.236088
0.53327  2.921526  0.245935
0.53615  2.923757  0.269383
0.53907  2.958879  0.289464
0.54201  3.010192  0.265574
0.54499  3.026380  0.210811
0.54800  3.011966  0.166994
0.55105  2.989378  0.139863
0.55412  2.967306  0.123218
0.55724  2.947579  0.112436
0.56039  2.929577  0.104853
0.56357  2.914191  0.099460
0.56679  2.900373  0.095332
0.57005  2.887821  0.092043
0.57334  2.876301  0.089334
0.57668  2.865635  0.087041
0.58005  2.855683  0.085055
0.58346  2.846338  0.083301
0.58691  2.837516  0.081728
0.59041  2.829147  0.080298
0.59394  2.821178  0.078984
0.59752  2.813561  0.077764
0.60114  2.806261  0.076623
0.60481  2.799244  0.075548
0.60852  2.792485  0.074530
0.61227  2.785960  0.073560
0.61608  2.779650  0.072633
0.61993  2.773538  0.071743
0.62382  2.767608  0.070886
0.62777  2.761848  0.070059
0.63177  2.756247  0.069257
0.63582  2.750793  0.068480
0.63992  2.745478  0.067724
0.64408  2.740293  0.066988
0.64829  2.735231  0.066271
0.65255  2.730285  0.065570
0.65688  2.725450  0.064885
0.66125  2.720720  0.064214
0.66569  2.716089  0.063557
0.67019  2.711553  0.062912
0.67475  2.707108  0.062280
0.67937  2.702749  0.061659
0.68406  2.698474  0.061048
0.68881  2.694278  0.060448
0.69362  2.690160  0.059857
0.69851  2.686115  0.059275
0.70346  2.682141  0.058703
0.70849  2.678236  0.058138
0.71358  2.674397  0.057582
0.71875  2.670621  0.057033
0.72400  2.666908  0.056492
0.72932  2.663255  0.055957
0.73473  2.659659  0.055430
0.74021  2.656121  0.054909
0.74578  2.652636  0.054395
0.75143  2.649205  0.053887
0.75716  2.645826  0.053385
0.76299  2.642496  0.052888
0.76890  2.639216  0.052398
0.77491  2.635983  0.051912
0.78101  2.632797  0.051432
0.78721  2.629657  0.050958
0.79351  2.626560  0.050488
0.79990  2.623084  0.049983
0.80641  2.620074  0.049523
0.81302  2.617105  0.049068
0.81974  2.614177  0.048618
0.82657  2.611289  0.048172
0.83351  2.608439  0.047730
0.84058  2.605626  0.047292
0.84776  2.602851  0.046859
0.85507  2.600112  0.046429
0.86251  2.597409  0.046003
0.87007  2.594741  0.045582
0.87777  2.592107  0.045164
0.88561  2.589507  0.044749
0.89359  2.586760  0.044337
0.90171  2.584227  0.043930
0.90998  2.581727  0.043526
0.91841  2.579257  0.043126
0.92699  2.576819  0.042729
0.93574  2.574410  0.042335
0.94465  2.572032  0.041945
0.95373  2.569682  0.041558
0.96299  2.567362  0.041173
0.97243  2.565070  0.040792
0.98206  2.562806  0.040414
0.99188  2.560035  0.040033
1.00190  2.557831  0.039661
1.01212  2.555654  0.039291
1.02256  2.553504  0.038925
1.03321  2.551379  0.038560
1.04409  2.549279  0.038199
1.05519  2.547205  0.037840
1.06654  2.545156  0.037484
1.07813  2.543131  0.037130
1.08998  2.541131  0.036779
1.10209  2.539154  0.036430
1.11447  2.537201  0.036083
1.12714  2.535271  0.035739
1.14009  2.533365  0.035397
1.15335  2.531481  0.035058
1.16692  2.529620  0.034720
1.18081  2.527781  0.034385
1.19504  2.525964  0.034052
1.20961  2.524168  0.033721
1.22455  2.522394  0.033393
1.23985  2.520642  0.033066
1.25555  2.518910  0.032741
1.27164  2.517200  0.032418
1.28816  2.515509  0.032097
1.30511  2.513840  0.031779
1.32251  2.512190  0.031462
1.34038  2.510561  0.031146
1.35874  2.508951  0.030833
1.37761  2.507361  0.030522
1.39702  2.505790  0.030212
1.41697  2.504239  0.029904
1.43751  2.502707  0.029597
1.45865  2.501193  0.029293
1.48042  2.499699  0.028990
1.50285  2.498222  0.028689
1.52597  2.496765  0.028389
1.54981  2.495325  0.028091
1.57441  2.493904  0.027794
1.59981  2.492500  0.027499
1.62604  2.491115  0.027205
1.65314  2.489747  0.026913
1.68116  2.488396  0.026623
1.71014  2.487063  0.026333
1.74014  2.485747  0.026046
1.77122  2.484448  0.025759
