; From SOPRA S.A. http://www.sopra-sa.com/indices.htm
; Filename    Symbol               Range (nm)     Description
; ZNSETE10    ZnTe                196     1771    Zinc Selenium Telluride (100% Te)   *
; lambda/um       n         k
0.19680  2.431516  1.733164
0.19719  2.429643  1.717338
0.19759  2.427302  1.701851
0.19798  2.424510  1.686717
0.19838  2.421285  1.671947
0.19877  2.417645  1.657553
0.19917  2.413610  1.643544
0.19957  2.409196  1.629928
0.19998  2.404421  1.616715
0.20038  2.399302  1.603911
0.20079  2.393858  1.591523
0.20119  2.388103  1.579557
0.20160  2.382056  1.568017
0.20201  2.375732  1.556910
0.20242  2.369147  1.546239
0.20284  2.362316  1.536007
0.20325  2.355255  1.526218
0.20367  2.347979  1.516875
0.20409  2.340502  1.507980
0.20451  2.332837  1.499536
0.20493  2.324999  1.491544
0.20536  2.317002  1.484008
0.20578  2.308858  1.476927
0.20621  2.300581  1.470305
0.20664  2.292181  1.464142
0.20707  2.283675  1.458441
0.20751  2.275072  1.453201
0.20794  2.266385  1.448425
0.20838  2.257626  1.444115
0.20882  2.248806  1.440271
0.20926  2.239938  1.436896
0.20970  2.231034  1.433990
0.21014  2.222104  1.431556
0.21059  2.213161  1.429595
0.21104  2.204217  1.428109
0.21149  2.195283  1.427101
0.21194  2.186373  1.426571
0.21239  2.177497  1.426523
0.21285  2.168670  1.426959
0.21331  2.159902  1.427881
0.21377  2.151209  1.429290
0.21423  2.142603  1.431191
0.21469  2.134098  1.433585
0.21516  2.125710  1.436475
0.21563  2.117451  1.439863
0.21610  2.109339  1.443752
0.21657  2.101389  1.448144
0.21704  2.093618  1.453041
0.21752  2.086045  1.458445
0.21800  2.078685  1.464358
0.21848  2.071559  1.470781
0.21896  2.064687  1.477716
0.21944  2.058088  1.485162
0.21993  2.051785  1.493120
0.22042  2.045799  1.501590
0.22091  2.040155  1.510570
0.22140  2.034875  1.520057
0.22190  2.029987  1.530050
0.22239  2.025514  1.540542
0.22289  2.021485  1.551531
0.22340  2.017928  1.563008
0.22390  2.014871  1.574965
0.22441  2.012344  1.587393
0.22492  2.010377  1.600280
0.22543  2.009002  1.613613
0.22594  2.008250  1.627377
0.22646  2.008155  1.641553
0.22698  2.008747  1.656122
0.22750  2.010061  1.671060
0.22802  2.012130  1.686344
0.22854  2.014985  1.701943
0.22907  2.018659  1.717827
0.22960  2.023184  1.733962
0.23013  2.028591  1.750308
0.23067  2.034908  1.766826
0.23121  2.042164  1.783470
0.23175  2.050382  1.800192
0.23229  2.059587  1.816941
0.23284  2.069798  1.833661
0.23338  2.081031  1.850296
0.23393  2.093297  1.866782
0.23449  2.106604  1.883056
0.23504  2.120955  1.899053
0.23560  2.136344  1.914705
0.23616  2.152765  1.929942
0.23673  2.170199  1.944695
0.23729  2.188625  1.958895
0.23786  2.208014  1.972475
0.23843  2.228328  1.985368
0.23901  2.249480  1.998536
0.23958  2.271526  2.009887
0.24016  2.294350  2.020380
0.24075  2.317895  2.029970
0.24133  2.342094  2.038619
0.24192  2.366883  2.046296
0.24251  2.392193  2.052978
0.24311  2.417958  2.058652
0.24371  2.444113  2.063313
0.24431  2.470596  2.066961
0.24491  2.497349  2.069605
0.24552  2.524323  2.071259
0.24612  2.551472  2.071939
0.24674  2.578762  2.071667
0.24735  2.606164  2.070460
0.24797  2.633657  2.068336
0.24859  2.661226  2.065309
0.24922  2.688863  2.061386
0.24984  2.716561  2.056569
0.25048  2.744317  2.050852
0.25111  2.772128  2.044217
0.25175  2.799985  2.036644
0.25239  2.827878  2.028098
0.25303  2.855782  2.018545
0.25368  2.883672  2.007940
0.25433  2.911509  1.996238
0.25498  2.939237  1.983395
0.25564  2.966795  1.969365
0.25630  2.994104  1.954113
0.25696  3.021080  1.937607
0.25763  3.047622  1.919827
0.25830  3.073625  1.900766
0.25898  3.098978  1.880432
0.25965  3.123565  1.858849
0.26034  3.147272  1.836055
0.26102  3.169989  1.812105
0.26171  3.191606  1.787072
0.26240  3.212030  1.761042
0.26310  3.231170  1.734114
0.26380  3.248957  1.706398
0.26450  3.265331  1.678010
0.26521  3.280247  1.649077
0.26592  3.293679  1.619724
0.26663  3.305615  1.590079
0.26735  3.316058  1.560268
0.26808  3.325026  1.530411
0.26880  3.332550  1.500625
0.26953  3.338671  1.471016
0.27027  3.343441  1.441685
0.27101  3.346920  1.412722
0.27175  3.349175  1.384204
0.27249  3.350275  1.356205
0.27325  3.350296  1.328782
0.27400  3.349312  1.301986
0.27476  3.347401  1.275858
0.27552  3.344638  1.250429
0.27629  3.341097  1.225725
0.27706  3.336852  1.201762
0.27784  3.331972  1.178551
0.27862  3.325754  1.155734
0.27940  3.319805  1.134047
0.28019  3.313411  1.113109
0.28099  3.306626  1.092912
0.28178  3.299504  1.073445
0.28259  3.292091  1.054693
0.28339  3.284433  1.036639
0.28421  3.276571  1.019266
0.28502  3.268541  1.002552
0.28584  3.260380  0.986480
0.28667  3.252117  0.971026
0.28750  3.243781  0.956170
0.28834  3.235399  0.941890
0.28918  3.226992  0.928163
0.29002  3.218583  0.914970
0.29087  3.210191  0.902287
0.29173  3.201830  0.890095
0.29259  3.193518  0.878372
0.29346  3.185267  0.867099
0.29433  3.177090  0.856255
0.29520  3.168996  0.845824
0.29608  3.160995  0.835784
0.29697  3.153095  0.826120
0.29786  3.145303  0.816815
0.29876  3.137626  0.807851
0.29966  3.130068  0.799213
0.30057  3.122634  0.790885
0.30148  3.115328  0.782854
0.30240  3.108154  0.775105
0.30333  3.101114  0.767625
0.30426  3.094209  0.760401
0.30519  3.087443  0.753420
0.30614  3.080816  0.746672
0.30708  3.074330  0.740144
0.30804  3.067984  0.733826
0.30900  3.061346  0.727822
0.30996  3.055278  0.721893
0.31093  3.049352  0.716146
0.31191  3.043567  0.710569
0.31290  3.037923  0.705154
0.31389  3.032419  0.699894
0.31488  3.027055  0.694779
0.31589  3.021829  0.689803
0.31690  3.016741  0.684957
0.31791  3.011789  0.680236
0.31893  3.006974  0.675631
0.31996  3.002292  0.671137
0.32100  2.997744  0.666747
0.32204  2.993327  0.662455
0.32309  2.988888  0.658293
0.32414  2.984729  0.654180
0.32521  2.980698  0.650148
0.32628  2.976794  0.646192
0.32735  2.973014  0.642306
0.32844  2.969357  0.638486
0.32953  2.965823  0.634727
0.33063  2.961952  0.631144
0.33173  2.958647  0.627495
0.33285  2.955460  0.623893
0.33397  2.952389  0.620334
0.33510  2.949431  0.616814
0.33623  2.946586  0.613328
0.33737  2.943852  0.609873
0.33853  2.941069  0.606486
0.33969  2.938178  0.603065
0.34085  2.935766  0.599679
0.34203  2.933458  0.596308
0.34321  2.931253  0.592948
0.34440  2.929149  0.589596
0.34560  2.927144  0.586247
0.34681  2.925236  0.582899
0.34803  2.923424  0.579546
0.34925  2.921706  0.576187
0.35049  2.920079  0.572816
0.35173  2.918543  0.569430
0.35298  2.917094  0.566026
0.35424  2.915730  0.562600
0.35551  2.914450  0.559148
0.35679  2.913250  0.555667
0.35808  2.912128  0.552151
0.35938  2.911081  0.548599
0.36068  2.910106  0.545005
0.36200  2.909199  0.541366
0.36333  2.908356  0.537677
0.36466  2.907574  0.533935
0.36601  2.906848  0.530136
0.36736  2.906172  0.526275
0.36873  2.905540  0.522349
0.37011  2.904945  0.518353
0.37149  2.904380  0.514283
0.37289  2.903836  0.510136
0.37429  2.903300  0.505909
0.37571  2.902761  0.501599
0.37714  2.902202  0.497205
0.37858  2.901605  0.492725
0.38003  2.900947  0.488164
0.38149  2.900199  0.483528
0.38297  2.899326  0.478827
0.38445  2.898282  0.474083
0.38595  2.897010  0.469333
0.38745  2.895437  0.464637
0.38897  2.893468  0.460096
0.39050  2.890990  0.455888
0.39205  2.887874  0.452317
0.39360  2.884026  0.449931
0.39517  2.878990  0.450313
0.39675  2.874805  0.454187
0.39835  2.874287  0.463957
0.39995  2.885043  0.478090
0.40157  2.912874  0.483598
0.40320  2.942924  0.464444
0.40485  2.953411  0.432453
0.40651  2.948817  0.406401
0.40818  2.939266  0.388582
0.40987  2.930381  0.376460
0.41157  2.922614  0.367392
0.41328  2.916022  0.360023
0.41501  2.910427  0.353609
0.41676  2.905629  0.347732
0.41852  2.901459  0.342147
0.42029  2.897780  0.336702
0.42208  2.894484  0.331299
0.42388  2.891481  0.325872
0.42570  2.888694  0.320373
0.42754  2.886058  0.314767
0.42939  2.883507  0.309029
0.43125  2.880983  0.303137
0.43314  2.878419  0.297078
0.43504  2.875747  0.290845
0.43695  2.872885  0.284437
0.43889  2.869739  0.277867
0.44084  2.866192  0.271164
0.44280  2.862097  0.264388
0.44479  2.856530  0.257948
0.44679  2.850634  0.251517
0.44882  2.843435  0.245713
0.45086  2.834565  0.241217
0.45291  2.823707  0.239292
0.45499  2.811015  0.242293
0.45709  2.798625  0.254255
0.45920  2.794656  0.279613
0.46134  2.816637  0.313004
0.46350  2.872854  0.322965
0.46567  2.924803  0.282704
0.46787  2.936103  0.224677
0.47009  2.921452  0.180648
0.47232  2.899711  0.152419
0.47458  2.878193  0.134408
0.47687  2.858715  0.122422
0.47917  2.841408  0.114031
0.48150  2.825994  0.107873
0.48384  2.811519  0.103035
0.48622  2.799007  0.099317
0.48861  2.787544  0.096276
0.49103  2.776954  0.093721
0.49347  2.767097  0.091528
0.49594  2.757863  0.089609
0.49843  2.749000  0.087900
0.50095  2.740770  0.086362
0.50349  2.732947  0.084959
0.50606  2.725486  0.083667
0.50866  2.718345  0.082466
0.51128  2.711492  0.081342
0.51393  2.704394  0.080276
0.51660  2.698046  0.079273
0.51931  2.691914  0.078318
0.52204  2.685981  0.077405
0.52480  2.680230  0.076530
0.52760  2.674648  0.075687
0.53042  2.669223  0.074873
0.53327  2.663944  0.074086
0.53615  2.658803  0.073322
0.53907  2.653790  0.072581
0.54201  2.648898  0.071859
0.54499  2.644120  0.071155
0.54800  2.639450  0.070468
0.55105  2.634882  0.069796
0.55412  2.630411  0.069139
0.55724  2.626032  0.068495
0.56039  2.621742  0.067864
0.56357  2.617535  0.067245
0.56679  2.613409  0.066637
0.57005  2.609359  0.066040
0.57334  2.605383  0.065452
0.57668  2.601479  0.064874
0.58005  2.597642  0.064306
0.58346  2.593870  0.063745
0.58691  2.590162  0.063193
0.59041  2.586515  0.062649
0.59394  2.582927  0.062113
0.59752  2.579395  0.061584
0.60114  2.575919  0.061062
0.60481  2.572495  0.060546
0.60852  2.569124  0.060037
0.61227  2.565803  0.059535
0.61608  2.562530  0.059038
0.61993  2.559305  0.058548
0.62382  2.556125  0.058063
0.62777  2.552990  0.057583
0.63177  2.549899  0.057109
0.63582  2.546850  0.056640
0.63992  2.543842  0.056177
0.64408  2.540875  0.055718
0.64829  2.537946  0.055264
0.65255  2.535057  0.054815
0.65688  2.532204  0.054370
0.66125  2.529388  0.053930
0.66569  2.526608  0.053494
0.67019  2.523863  0.053062
0.67475  2.520712  0.052589
0.67937  2.518035  0.052166
0.68406  2.515392  0.051747
0.68881  2.512781  0.051332
0.69362  2.510201  0.050920
0.69851  2.507653  0.050513
0.70346  2.505134  0.050109
0.70849  2.502645  0.049708
0.71358  2.500185  0.049311
0.71875  2.497754  0.048918
0.72400  2.495351  0.048527
0.72932  2.492975  0.048140
0.73473  2.490627  0.047757
0.74021  2.488305  0.047376
0.74578  2.486009  0.046999
0.75143  2.483740  0.046625
0.75716  2.481495  0.046254
0.76299  2.479275  0.045885
0.76890  2.477080  0.045520
0.77491  2.474909  0.045157
0.78101  2.472762  0.044798
0.78721  2.470638  0.044441
0.79351  2.468537  0.044087
0.79990  2.466459  0.043735
0.80641  2.464403  0.043386
0.81302  2.462369  0.043040
0.81974  2.460357  0.042696
0.82657  2.458367  0.042355
0.83351  2.456209  0.042015
0.84058  2.454263  0.041678
0.84776  2.452337  0.041344
0.85507  2.450431  0.041013
0.86251  2.448545  0.040684
0.87007  2.446678  0.040357
0.87777  2.444832  0.040032
0.88561  2.443004  0.039709
0.89359  2.441196  0.039389
0.90171  2.439406  0.039071
0.90998  2.437635  0.038755
0.91841  2.435883  0.038441
0.92699  2.434148  0.038129
0.93574  2.431865  0.037815
0.94465  2.430171  0.037507
0.95373  2.428494  0.037201
0.96299  2.426835  0.036897
0.97243  2.425192  0.036595
0.98206  2.423567  0.036295
0.99188  2.421958  0.035997
1.00190  2.420366  0.035700
1.01212  2.418790  0.035405
1.02256  2.417230  0.035113
1.03321  2.415686  0.034821
1.04409  2.414158  0.034532
1.05519  2.412646  0.034244
1.06654  2.411149  0.033958
1.07813  2.409667  0.033673
1.08998  2.408201  0.033391
1.10209  2.406750  0.033109
1.11447  2.405314  0.032830
1.12714  2.403893  0.032552
1.14009  2.402487  0.032275
1.15335  2.401095  0.032000
1.16692  2.399717  0.031727
1.18081  2.398354  0.031455
1.19504  2.397005  0.031184
1.20961  2.395670  0.030915
1.22455  2.394349  0.030647
1.23985  2.393042  0.030381
1.25555  2.391748  0.030116
1.27164  2.390468  0.029852
1.28816  2.389202  0.029590
1.30511  2.387949  0.029329
1.32251  2.386709  0.029069
1.34038  2.385482  0.028811
1.35874  2.384269  0.028554
1.37761  2.383068  0.028298
1.39702  2.381881  0.028043
1.41697  2.380706  0.027790
1.43751  2.379544  0.027538
1.45865  2.378394  0.027287
1.48042  2.377257  0.027037
1.50285  2.376132  0.026788
1.52597  2.375021  0.026541
1.54981  2.373920  0.026294
1.57441  2.372833  0.026049
1.59981  2.371757  0.025805
1.62604  2.370693  0.025561
1.65314  2.369642  0.025319
1.68116  2.368602  0.025078
1.71014  2.367573  0.024838
1.74014  2.366557  0.024599
1.77122  2.365552  0.024361
