; From SOPRA S.A. http://www.sopra-sa.com/indices.htm
; Filename    Symbol               Range (nm)     Description
; ZNSETE9     ZnSe0.1Te0.9        196     1771    Zinc Selenium Telluride (90% Te)    *
; lambda/um       n         k
0.19680  2.464934  1.975192
0.19719  2.469755  1.956048
0.19759  2.473905  1.937023
0.19798  2.477395  1.918148
0.19838  2.480242  1.899447
0.19877  2.482460  1.880947
0.19917  2.484068  1.862673
0.19957  2.485083  1.844644
0.19998  2.485524  1.826884
0.20038  2.485409  1.809410
0.20079  2.484760  1.792242
0.20119  2.483594  1.775396
0.20160  2.481933  1.758886
0.20201  2.479796  1.742726
0.20242  2.477204  1.726929
0.20284  2.474177  1.711507
0.20325  2.470735  1.696468
0.20367  2.466897  1.681822
0.20409  2.462684  1.667578
0.20451  2.458114  1.653740
0.20493  2.453207  1.640317
0.20536  2.447981  1.627313
0.20578  2.442453  1.614730
0.20621  2.436643  1.602575
0.20664  2.430565  1.590849
0.20707  2.424238  1.579555
0.20751  2.417677  1.568694
0.20794  2.410899  1.558267
0.20838  2.403917  1.548276
0.20882  2.396748  1.538721
0.20926  2.389405  1.529603
0.20970  2.381902  1.520920
0.21014  2.374252  1.512672
0.21059  2.366468  1.504860
0.21104  2.358563  1.497481
0.21149  2.350548  1.490537
0.21194  2.342436  1.484025
0.21239  2.334237  1.477944
0.21285  2.325963  1.472294
0.21331  2.317624  1.467074
0.21377  2.309231  1.462283
0.21423  2.300793  1.457919
0.21469  2.292321  1.453983
0.21516  2.283825  1.450474
0.21563  2.275313  1.447390
0.21610  2.266797  1.444732
0.21657  2.258284  1.442499
0.21704  2.249784  1.440692
0.21752  2.241307  1.439310
0.21800  2.232862  1.438353
0.21848  2.224458  1.437823
0.21896  2.216105  1.437719
0.21944  2.207811  1.438042
0.21993  2.199588  1.438794
0.22042  2.191444  1.439975
0.22091  2.183391  1.441587
0.22140  2.175438  1.443630
0.22190  2.167596  1.446108
0.22239  2.159877  1.449021
0.22289  2.152291  1.452372
0.22340  2.144852  1.456162
0.22390  2.137571  1.460392
0.22441  2.130462  1.465066
0.22492  2.123538  1.470185
0.22543  2.116814  1.475751
0.22594  2.110305  1.481766
0.22646  2.104026  1.488231
0.22698  2.097995  1.495149
0.22750  2.092228  1.502519
0.22802  2.086744  1.510343
0.22854  2.081562  1.518621
0.22907  2.076703  1.527353
0.22960  2.072187  1.536539
0.23013  2.068037  1.546176
0.23067  2.064276  1.556262
0.23121  2.060928  1.566794
0.23175  2.058019  1.577767
0.23229  2.055575  1.589175
0.23284  2.053624  1.601012
0.23338  2.052195  1.613268
0.23393  2.051316  1.625931
0.23449  2.051018  1.638991
0.23504  2.051332  1.652431
0.23560  2.052290  1.666235
0.23616  2.053925  1.680382
0.23673  2.056269  1.694849
0.23729  2.059354  1.709611
0.23786  2.063214  1.724638
0.23843  2.067880  1.739898
0.23901  2.073385  1.755354
0.23958  2.079757  1.770966
0.24016  2.087025  1.786689
0.24075  2.095217  1.802478
0.24133  2.104353  1.818277
0.24192  2.114456  1.834033
0.24251  2.125541  1.849684
0.24311  2.137619  1.865168
0.24371  2.150697  1.880418
0.24431  2.164773  1.895366
0.24491  2.179842  1.909939
0.24552  2.195890  1.924066
0.24612  2.212893  1.937673
0.24674  2.230823  1.950690
0.24735  2.249641  1.963045
0.24797  2.269299  1.974674
0.24859  2.289654  1.986517
0.24922  2.310834  1.996526
0.24984  2.332665  2.005642
0.25048  2.355073  2.013831
0.25111  2.377979  2.021063
0.25175  2.401298  2.027322
0.25239  2.424948  2.032605
0.25303  2.448845  2.036921
0.25368  2.472915  2.040288
0.25433  2.497090  2.042741
0.25498  2.521303  2.044319
0.25564  2.545508  2.045074
0.25630  2.569664  2.045059
0.25696  2.593751  2.044335
0.25763  2.617759  2.042959
0.25830  2.641690  2.040988
0.25898  2.665565  2.038470
0.25965  2.689414  2.035445
0.26034  2.713276  2.031942
0.26102  2.737200  2.027976
0.26171  2.761237  2.023545
0.26240  2.785440  2.018633
0.26310  2.809857  2.013206
0.26380  2.834534  2.007216
0.26450  2.859506  2.000597
0.26521  2.884792  1.993275
0.26592  2.910400  1.985161
0.26663  2.936317  1.976162
0.26735  2.962514  1.966180
0.26808  2.988941  1.955118
0.26880  3.015526  1.942881
0.26953  3.042179  1.929383
0.27027  3.068791  1.914552
0.27101  3.095238  1.898329
0.27175  3.121383  1.880673
0.27249  3.147079  1.861565
0.27325  3.172173  1.841006
0.27400  3.196509  1.819025
0.27476  3.219938  1.795670
0.27552  3.242314  1.771013
0.27629  3.263502  1.745148
0.27706  3.283384  1.718186
0.27784  3.301857  1.690254
0.27862  3.318835  1.661491
0.27940  3.334258  1.632043
0.28019  3.348082  1.602062
0.28099  3.360286  1.571702
0.28178  3.370868  1.541113
0.28259  3.379845  1.510441
0.28339  3.387250  1.479822
0.28421  3.393131  1.449385
0.28502  3.397549  1.419247
0.28584  3.400574  1.389514
0.28667  3.402283  1.360276
0.28750  3.402760  1.331612
0.28834  3.402091  1.303592
0.28918  3.400364  1.276266
0.29002  3.397669  1.249683
0.29087  3.394091  1.223873
0.29173  3.388953  1.198527
0.29259  3.383871  1.174340
0.29346  3.378151  1.150971
0.29433  3.371869  1.128424
0.29520  3.365094  1.106694
0.29608  3.357891  1.085769
0.29697  3.350320  1.065640
0.29786  3.342437  1.046288
0.29876  3.334293  1.027695
0.29966  3.325936  1.009839
0.30057  3.317409  0.992698
0.30148  3.308749  0.976248
0.30240  3.299993  0.960464
0.30333  3.291172  0.945323
0.30426  3.282314  0.930798
0.30519  3.273446  0.916865
0.30614  3.264590  0.903498
0.30708  3.255767  0.890674
0.30804  3.246994  0.878368
0.30900  3.238288  0.866559
0.30996  3.229663  0.855220
0.31093  3.221131  0.844333
0.31191  3.212703  0.833875
0.31290  3.204388  0.823825
0.31389  3.196195  0.814165
0.31488  3.188131  0.804874
0.31589  3.180201  0.795935
0.31690  3.172411  0.787331
0.31791  3.164765  0.779044
0.31893  3.157266  0.771058
0.31996  3.149918  0.763359
0.32100  3.142723  0.755932
0.32204  3.135682  0.748762
0.32309  3.128797  0.741836
0.32414  3.122069  0.735141
0.32521  3.115498  0.728666
0.32628  3.109084  0.722397
0.32735  3.102828  0.716326
0.32844  3.096728  0.710439
0.32953  3.090785  0.704728
0.33063  3.084562  0.699292
0.33173  3.078924  0.693904
0.33285  3.073440  0.688662
0.33397  3.068108  0.683559
0.33510  3.062927  0.678587
0.33623  3.057897  0.673736
0.33737  3.053015  0.669000
0.33853  3.048279  0.664371
0.33969  3.043246  0.659961
0.34085  3.038789  0.655528
0.34203  3.034472  0.651182
0.34321  3.030296  0.646917
0.34440  3.026106  0.642762
0.34560  3.022201  0.638639
0.34681  3.018429  0.634578
0.34803  3.014634  0.630616
0.34925  3.010759  0.626651
0.35049  3.007375  0.622745
0.35173  3.004116  0.618880
0.35298  3.000981  0.615050
0.35424  2.997967  0.611251
0.35551  2.995071  0.607476
0.35679  2.992292  0.603722
0.35808  2.989627  0.599983
0.35938  2.987073  0.596255
0.36068  2.984628  0.592533
0.36200  2.982290  0.588811
0.36333  2.980054  0.585086
0.36466  2.977919  0.581352
0.36601  2.975880  0.577605
0.36736  2.973935  0.573841
0.36873  2.972079  0.570053
0.37011  2.970309  0.566238
0.37149  2.968618  0.562391
0.37289  2.967003  0.558507
0.37429  2.965458  0.554582
0.37571  2.963976  0.550611
0.37714  2.962549  0.546588
0.37858  2.961169  0.542511
0.38003  2.959825  0.538375
0.38149  2.958506  0.534177
0.38297  2.957197  0.529914
0.38445  2.955882  0.525585
0.38595  2.954538  0.521191
0.38745  2.953140  0.516735
0.38897  2.951655  0.512225
0.39050  2.950043  0.507680
0.39205  2.948251  0.503126
0.39360  2.946210  0.498614
0.39517  2.943835  0.494228
0.39675  2.941017  0.490113
0.39835  2.937627  0.486528
0.39995  2.933546  0.483936
0.40157  2.928277  0.483703
0.40320  2.923458  0.486533
0.40485  2.921265  0.494898
0.40651  2.928656  0.508533
0.40818  2.953046  0.516393
0.40987  2.982699  0.500577
0.41157  2.993771  0.469903
0.41328  2.989022  0.444653
0.41501  2.979198  0.427840
0.41676  2.970113  0.416772
0.41852  2.962245  0.408742
0.42029  2.955620  0.402381
0.42208  2.950043  0.396959
0.42388  2.945310  0.392073
0.42570  2.941255  0.387489
0.42754  2.937749  0.383066
0.42939  2.934691  0.378714
0.43125  2.932006  0.374372
0.43314  2.929631  0.369998
0.43504  2.927516  0.365559
0.43695  2.925622  0.361030
0.43889  2.923913  0.356393
0.44084  2.922356  0.351627
0.44280  2.920924  0.346719
0.44479  2.919589  0.341654
0.44679  2.918324  0.336417
0.44882  2.917101  0.330997
0.45086  2.915890  0.325379
0.45291  2.914658  0.319552
0.45499  2.913368  0.313504
0.45709  2.911975  0.307226
0.45920  2.910427  0.300711
0.46134  2.908659  0.293955
0.46350  2.906590  0.286963
0.46567  2.904119  0.279754
0.46787  2.901112  0.272369
0.47009  2.896730  0.265149
0.47232  2.891996  0.257790
0.47458  2.886006  0.250805
0.47687  2.878380  0.244752
0.47917  2.868723  0.240699
0.48150  2.856931  0.240699
0.48384  2.844396  0.248495
0.48622  2.837671  0.269065
0.48861  2.853456  0.300142
0.49103  2.904360  0.313226
0.49347  2.956083  0.276453
0.49594  2.967689  0.219159
0.49843  2.952413  0.175631
0.50095  2.930275  0.148085
0.50349  2.908570  0.130706
0.50606  2.889028  0.119219
0.50866  2.871710  0.111205
0.51128  2.855665  0.105187
0.51393  2.841397  0.100704
0.51660  2.828887  0.097143
0.51931  2.817417  0.094221
0.52204  2.806811  0.091759
0.52480  2.796929  0.089638
0.52760  2.787664  0.087775
0.53042  2.778929  0.086113
0.53327  2.770653  0.084610
0.53615  2.762782  0.083235
0.53907  2.755267  0.081965
0.54201  2.748072  0.080781
0.54499  2.741162  0.079671
0.54800  2.734512  0.078622
0.55105  2.728096  0.077627
0.55412  2.721896  0.076678
0.55724  2.715893  0.075769
0.56039  2.710073  0.074896
0.56357  2.704422  0.074055
0.56679  2.698928  0.073241
0.57005  2.693581  0.072454
0.57334  2.688372  0.071689
0.57668  2.683291  0.070946
0.58005  2.678333  0.070221
0.58346  2.673488  0.069515
0.58691  2.668753  0.068825
0.59041  2.664120  0.068150
0.59394  2.659586  0.067489
0.59752  2.655144  0.066842
0.60114  2.650791  0.066207
0.60481  2.646524  0.065583
0.60852  2.642337  0.064971
0.61227  2.638228  0.064369
0.61608  2.634195  0.063778
0.61993  2.630233  0.063195
0.62382  2.626339  0.062622
0.62777  2.622513  0.062057
0.63177  2.618751  0.061500
0.63582  2.615051  0.060952
0.63992  2.611410  0.060410
0.64408  2.607828  0.059877
0.64829  2.604301  0.059350
0.65255  2.600829  0.058830
0.65688  2.597410  0.058316
0.66125  2.594042  0.057809
0.66569  2.590724  0.057307
0.67019  2.587453  0.056812
0.67475  2.584230  0.056322
0.67937  2.581053  0.055838
0.68406  2.577920  0.055360
0.68881  2.574830  0.054886
0.69362  2.571783  0.054418
0.69851  2.568777  0.053955
0.70346  2.565811  0.053496
0.70849  2.562885  0.053042
0.71358  2.559997  0.052593
0.71875  2.557147  0.052148
0.72400  2.553900  0.051665
0.72932  2.551124  0.051229
0.73473  2.548383  0.050797
0.74021  2.545676  0.050370
0.74578  2.543004  0.049946
0.75143  2.540364  0.049527
0.75716  2.537757  0.049111
0.76299  2.535182  0.048699
0.76890  2.532638  0.048290
0.77491  2.530125  0.047886
0.78101  2.527641  0.047484
0.78721  2.525188  0.047086
0.79351  2.522763  0.046692
0.79990  2.520367  0.046301
0.80641  2.517999  0.045913
0.81302  2.515658  0.045528
0.81974  2.513345  0.045147
0.82657  2.511059  0.044768
0.83351  2.508798  0.044393
0.84058  2.506563  0.044020
0.84776  2.504354  0.043651
0.85507  2.502170  0.043284
0.86251  2.500011  0.042920
0.87007  2.497691  0.042558
0.87777  2.495582  0.042199
0.88561  2.493496  0.041844
0.89359  2.491434  0.041491
0.90171  2.489395  0.041140
0.90998  2.487378  0.040792
0.91841  2.485384  0.040447
0.92699  2.483411  0.040104
0.93574  2.481460  0.039763
0.94465  2.479531  0.039425
0.95373  2.477623  0.039089
0.96299  2.475736  0.038756
0.97243  2.473313  0.038421
0.98206  2.471472  0.038092
0.99188  2.469651  0.037765
1.00190  2.467850  0.037441
1.01212  2.466068  0.037118
1.02256  2.464306  0.036798
1.03321  2.462563  0.036480
1.04409  2.460839  0.036163
1.05519  2.459133  0.035849
1.06654  2.457446  0.035537
1.07813  2.455777  0.035227
1.08998  2.454127  0.034918
1.10209  2.452494  0.034612
1.11447  2.450879  0.034307
1.12714  2.449282  0.034005
1.14009  2.447702  0.033704
1.15335  2.446139  0.033404
1.16692  2.444594  0.033107
1.18081  2.443065  0.032811
1.19504  2.441553  0.032517
1.20961  2.440057  0.032225
1.22455  2.438578  0.031934
1.23985  2.437115  0.031645
1.25555  2.435669  0.031357
1.27164  2.434238  0.031072
1.28816  2.432823  0.030787
1.30511  2.431424  0.030504
1.32251  2.430040  0.030223
1.34038  2.428672  0.029943
1.35874  2.427319  0.029665
1.37761  2.425981  0.029388
1.39702  2.424659  0.029112
1.41697  2.423351  0.028838
1.43751  2.422058  0.028566
1.45865  2.420780  0.028294
1.48042  2.419516  0.028024
1.50285  2.418267  0.027756
1.52597  2.417032  0.027488
1.54981  2.415812  0.027222
1.57441  2.414605  0.026957
1.59981  2.413413  0.026694
1.62604  2.412234  0.026431
1.65314  2.411070  0.026170
1.68116  2.409919  0.025910
1.71014  2.408782  0.025651
1.74014  2.407658  0.025394
1.77122  2.406548  0.025137
