; From SOPRA S.A. http://www.sopra-sa.com/indices.htm
; Filename    Symbol               Range (nm)     Description
; ZNSE        ZnSe                190     1239    Zinc Selenide
; lambda/um       n         k
0.19075  2.263686  2.363589
0.19223  2.314424  2.292655
0.19373  2.361286  2.210321
0.19525  2.404123  2.118806
0.19680  2.442783  2.020334
0.19838  2.477114  1.917125
0.19998  2.506964  1.811399
0.20160  2.532184  1.705379
0.20325  2.552621  1.601284
0.20493  2.569461  1.497639
0.20664  2.578540  1.407757
0.20838  2.574317  1.348757
0.21014  2.562103  1.307760
0.21194  2.545148  1.277589
0.21377  2.524101  1.258251
0.21563  2.500401  1.247573
0.21752  2.474929  1.244918
0.21944  2.448702  1.249295
0.22140  2.422760  1.259594
0.22340  2.398120  1.274812
0.22543  2.375867  1.293630
0.22750  2.357197  1.314192
0.22960  2.342790  1.337110
0.23175  2.332339  1.363981
0.23393  2.330000  1.390000
0.23616  2.341386  1.408831
0.23843  2.361815  1.426674
0.24075  2.388497  1.447423
0.24311  2.421369  1.471656
0.24552  2.459872  1.498129
0.24797  2.502703  1.536192
0.25048  2.548139  1.601099
0.25303  2.596871  1.673888
0.25564  2.647219  1.758185
0.25830  2.704570  1.801492
0.26102  2.775836  1.739461
0.26380  2.854768  1.611269
0.26663  2.939570  1.421469
0.26953  3.023804  1.209596
0.27249  3.102173  1.007526
0.27552  3.169447  0.842805
0.27862  3.218045  0.757822
0.28178  3.249721  0.739945
0.28502  3.259709  0.817874
0.28834  3.260000  0.910000
0.29173  3.262435  0.931096
0.29520  3.262703  0.920719
0.29876  3.260324  0.889213
0.30240  3.255651  0.838992
0.30614  3.248844  0.769590
0.30996  3.240000  0.700000
0.31389  3.229195  0.655028
0.31791  3.216647  0.616771
0.32204  3.202553  0.574221
0.32628  3.187057  0.531505
0.33063  3.170318  0.488967
0.33510  3.152493  0.446951
0.33969  3.134317  0.405248
0.34440  3.114220  0.365855
0.34925  3.090968  0.330447
0.35424  3.064290  0.299778
0.35938  3.032292  0.276156
0.36466  2.998605  0.256599
0.37011  2.966273  0.238691
0.37571  2.935168  0.223047
0.38149  2.905956  0.209525
0.38745  2.879303  0.197981
0.39360  2.855876  0.188273
0.39995  2.836339  0.180259
0.40651  2.821358  0.173796
0.41328  2.811599  0.168741
0.42029  2.807259  0.164818
0.42754  2.810413  0.162286
0.43504  2.824545  0.161805
0.44280  2.845623  0.161894
0.45086  2.876654  0.163378
0.45920  2.900000  0.160000
0.46787  2.894958  0.143873
0.47687  2.873726  0.120709
0.48622  2.837931  0.091041
0.49594  2.798580  0.062518
0.50606  2.769035  0.044422
0.51660  2.743850  0.032388
0.52760  2.722504  0.025625
0.53907  2.703581  0.022694
0.55105  2.685329  0.021910
0.56357  2.668236  0.023214
0.57668  2.652229  0.026141
0.59041  2.637235  0.030225
0.60481  2.623247  0.036037
0.61993  2.610000  0.040000
0.63582  2.597147  0.037247
0.65255  2.584919  0.032215
0.67019  2.573468  0.028033
0.68881  2.562692  0.023753
0.70849  2.552551  0.019446
0.72932  2.543006  0.015184
0.75143  2.534017  0.011037
0.77491  2.525546  0.007076
0.79990  2.517553  0.003031
0.82657  2.510000  0.000000
0.85507  2.502847  0.000000
0.88561  2.496054  0.000000
0.91841  2.489583  0.000000
0.95373  2.483394  0.000000
0.99188  2.477449  0.000000
1.03321  2.471708  0.000000
1.07813  2.466131  0.000000
1.12714  2.460680  0.000000
1.18081  2.455316  0.000000
1.23985  2.450000  0.000000
