;UO 
;UO Pb83Sn17.TeA:  Values of n and k for cubic lead tin telluride
;UO (Pb0.83Sn0.17Te) from various references in HOCII (pg. 641).
;UO Reference is 1. 
;UO 
;UO Copyright (c) 1995 the Optical Society of America.  Contains data
;UO from HANDBOOK OF OPTICAL CONSTANTS IN SOLIDS II edited by Edward D.
;UO Palik. Copyright (c) 1991 by Academic Press, Inc. Reproduced by
;UO permission of the publisher.
;UO ------------------------------------------------------------- 
;UO  eV   cm-1      um             n         k 
;UO -------------------------------------------------------------	
;N  5
;L  Energy[eV]  Wavelength[cm-1]  Wavelength[um]  n  k  
   12.84  103540  0.0966 -0.0001   0.531
   12.82  103400  0.0967   0.606 -0.0001
   12.75  102850  0.0972 -0.0001   0.527
   12.74  102760  0.0973   0.608 -0.0001
   12.66  102080  0.0980 -0.0001   0.528
   12.64  101930  0.0981   0.574 -0.0001
   12.43  100230  0.0998   0.578   0.566
   12.30   99205  0.1008   0.580 -0.0001
   12.20   98383  0.1016 -0.0001   0.597
   12.12   97754  0.1023   0.583 -0.0001
   12.03   97028  0.1031 -0.0001   0.618
   11.92   96141  0.1040   0.603 -0.0001
   11.83   95415  0.1048 -0.0001   0.613
   11.76   94850  0.1055   0.606 -0.0001
   11.55   93156  0.1073 -0.0001   0.648
   11.54   93076  0.1074   0.574 -0.0001
   11.43   92188  0.1085 -0.0001   0.650
   11.33   91366  0.1095   0.578 -0.0001
   11.19   90277  0.1108 -0.0001   0.683
   11.12   89712  0.1115   0.582 -0.0001
   11.02   88922  0.1125 -0.0001   0.716
   10.93   88123  0.1135   0.585 -0.0001
   10.86   87567  0.1142 -0.0001   0.741
   10.81   87228  0.1146   0.617 -0.0001
   10.71   86405  0.1157 -0.0001   0.760
   10.67   86083  0.1162   0.619 -0.0001
   10.54   85034  0.1176 -0.0001   0.762
   10.49   84591  0.1182   0.623 -0.0001
   10.33   83333  0.1200 -0.0001   0.785
   10.31   83155  0.1203   0.607 -0.0001
   10.12   81623  0.1225   0.610 -0.0001
   10.10   81461  0.1228 -0.0001   0.788
   9.970   80413  0.1244   0.613 -0.0001
   9.898   79832  0.1253 -0.0001   0.818
   9.789   78953  0.1267   0.626 -0.0001
   9.706   78284  0.1277 -0.0001   0.834
   9.593   77372  0.1292   0.606 -0.0001
   9.455   76259  0.1311   0.613 -0.0001
   9.454   76251  0.1312 -0.0001   0.865
   9.284   74880  0.1336 -0.0001   0.901
   9.270   74767  0.1338   0.616 -0.0001
   9.101   73404  0.1362 -0.0001   0.927
   9.089   73307  0.1364   0.619 -0.0001
   8.948   72170  0.1386 -0.0001   0.954
   8.866   71509  0.1398   0.593 -0.0001
   8.765   70694  0.1415 -0.0001   1.005
   8.670   69928  0.1430   0.596 -0.0001
   8.575   69161  0.1446 -0.0001   1.033
   8.449   68145  0.1467   0.600 -0.0001
   8.398   67734  0.1476 -0.0001   1.095
   8.298   66927  0.1494   0.601 -0.0001
   8.274   66734  0.1498 -0.0001   1.093
   8.149   65726  0.1522   0.604 -0.0001
   8.079   65306  0.1535 -0.0001   1.157
   7.990   64443  0.1552   0.619 -0.0001
   7.915   63838  0.1566 -0.0001   1.219
   7.821   63080  0.1585   0.658 -0.0001
   7.736   62395  0.1603 -0.0001   1.259
   7.648   61685  0.1621   0.695 -0.0001
   7.509   60564  0.1651 -0.0001   1.325
   7.465   60209  0.1661   0.743 -0.0001
   7.356   59330  0.1686 -0.0001   1.370
   7.310   58959  0.1696   0.800 -0.0001
   7.162   57765  0.1731   0.823 -0.0001
   7.133   57531  0.1738 -0.0001   1.382
   6.997   56434  0.1772   0.890 -0.0001
   6.954   56087  0.1783 -0.0001   1.369
   6.895   55611  0.1798   0.903 -0.0001
   6.774   54636  0.1830 -0.0001   1.325
   6.714   54152  0.1847   0.910 -0.0001
   6.611   53321  0.1875 -0.0001   1.327
   6.543   52772  0.1895   0.886 -0.0001
   6.467   52159  0.1917 -0.0001   1.355
   6.368   51361  0.1947   0.889 -0.0001
   6.342   51151  0.1955 -0.0001   1.394
   6.202   50022  0.1999 -0.0001   1.390
   6.198   49990  0.2000   0.939 -0.0001
   6.059   48869  0.2046   0.955 -0.0001
   6.019   48546  0.2060 -0.0001   1.407
   5.941   47915  0.2087   0.947 -0.0001
   5.850   47184  0.2119 -0.0001   1.359
   5.796   46751  0.2139   0.916 -0.0001
   5.683   45839  0.2182 -0.0001   1.327
   5.663   45678  0.2189   0.900 -0.0001
   5.534   44635  0.2240 -0.0001   1.361
   5.492   44296  0.2258   0.819 -0.0001
   5.357   43206  0.2315   0.752   1.395
   5.174   41733  0.2396   0.704 -0.0001
   5.139   41452  0.2413 -0.0001   1.504
   5.046   40698  0.2457   0.631 -0.0001
   4.967   40060  0.2496 -0.0001   1.613
   4.859   39189  0.2552   0.614 -0.0001
   4.764   38428  0.2602 -0.0001   1.739
   4.632   37359  0.2677   0.569 -0.0001
   4.629   37339  0.2678 -0.0001   1.862
   4.498   36280  0.2756 -0.0001   1.982
   4.467   36031  0.2775   0.553 -0.0001
   4.346   35056  0.2853   0.584 -0.0001
   4.337   34982  0.2859 -0.0001   2.130
   4.245   34238  0.2921 -0.0001   2.224
   4.168   33616  0.2975   0.634 -0.0001
   4.106   33119  0.3019 -0.0001   2.355
   4.038   32569  0.3070   0.688 -0.0001
   3.971   32032  0.3122 -0.0001   2.491
   3.860   31129  0.3213   0.735 -0.0001
   3.821   30821  0.3245 -0.0001   2.602
   3.729   30079  0.3325   0.767 -0.0001
   3.690   29762  0.3360 -0.0001   2.719
   3.598   29021  0.3446 -0.0001   2.855
   3.590   28958  0.3453   0.833 -0.0001
   3.465   27947  0.3578 -0.0001   2.977
   3.461   27912  0.3583   0.897 -0.0001
   3.360   27099  0.3690 -0.0001   3.096
   3.294   26570  0.3764   0.999 -0.0001
   3.240   26132  0.3827 -0.0001   3.230
   3.186   25697  0.3892   1.091 -0.0001
   3.098   24983  0.4003 -0.0001   3.355
   2.982   24049  0.4158 -0.0001   3.514
   2.959   23869  0.4190   1.185 -0.0001
   2.877   23207  0.4309 -0.0001   3.693
   2.817   22718  0.4402   1.255 -0.0001
   2.788   22486  0.4447 -0.0001   3.874
   2.715   21897  0.4567 -0.0001   4.021
   2.690   21695  0.4609   1.373 -0.0001
   2.642   21312  0.4692 -0.0001   4.203
   2.599   20958  0.4771   1.493 -0.0001
   2.569   20719  0.4827 -0.0001   4.455
   2.498   20150  0.4963   1.635   4.641
   2.444   19711  0.5073 -0.0001   4.791
   2.434   19630  0.5094   1.798 -0.0001
   2.379   19188  0.5212   1.978 -0.0001
   2.374   19147  0.5223 -0.0001   5.030
   2.342   18891  0.5294 -0.0001   5.182
   2.317   18687  0.5351   2.167 -0.0001
   2.279   18383  0.5440 -0.0001   5.382
   2.275   18347  0.5451   2.430 -0.0001
   2.229   17978  0.5562 -0.0001   5.565
   2.218   17890  0.5590   2.613 -0.0001
   2.183   17603  0.5681   2.823 -0.0001
   2.170   17500  0.5715 -0.0001   5.754
   2.158   17407  0.5745   3.033 -0.0001
   2.126   17150  0.5831   3.242 -0.0001
   2.113   17045  0.5867 -0.0001   5.884
   2.098   16918  0.5911   3.419 -0.0001
   2.073   16720  0.5981   3.618 -0.0001
   2.064   16646  0.6008 -0.0001   5.963
   2.062   16627  0.6014   3.814 -0.0001
   2.026   16337  0.6121   4.004 -0.0001
   2.017   16271  0.6146 -0.0001   5.986
   1.986   16022  0.6242   4.226 -0.0001
   1.982   15985  0.6256 -0.0001   5.992
   1.962   15823  0.6320   4.420 -0.0001
   1.954   15758  0.6346   4.601 -0.0001
   1.946   15693  0.6372 -0.0001   5.942
   1.937   15619  0.6403   4.795 -0.0001
   1.908   15386  0.6500   4.960 -0.0001
   1.891   15249  0.6558   5.168 -0.0001
   1.858   14984  0.6674 -0.0001   5.784
   1.855   14959  0.6685   5.358 -0.0001
   1.824   14710  0.6798   5.512 -0.0001
   1.815   14642  0.6830   5.672 -0.0001
   1.801   14522  0.6886 -0.0001   5.546
   1.788   14425  0.6933   5.845 -0.0001
   1.770   14275  0.7006 -0.0001   5.333
   1.747   14089  0.7098   6.027 -0.0001
   1.728   13934  0.7177 -0.0001   5.094
   1.723   13896  0.7196   6.269 -0.0001
   1.688   13613  0.7346 -0.0001   4.900
   1.673   13490  0.7413   6.486 -0.0001
   1.650   13306  0.7515   6.574 -0.0001
   1.646   13275  0.7533 -0.0001   4.685
   1.633   13168  0.7595   6.661 -0.0001
   1.632   13162  0.7598 -0.0001   4.464
   1.602   12918  0.7741 -0.0001   4.283
   1.594   12858  0.7777   6.710 -0.0001
   1.570   12659  0.7900 -0.0001   4.106
   1.569   12655  0.7902   6.660 -0.0001
   1.545   12461  0.8025 -0.0001   3.942
   1.512   12197  0.8199 -0.0001   3.714
   1.486   11985  0.8344   6.609 -0.0001
   1.437   11589  0.8629 -0.0001   3.516
   1.421   11465  0.8722   6.661 -0.0001
   1.390   11211  0.8920 -0.0001   3.354
   1.379   11125  0.8989   6.710 -0.0001
   1.326   10692  0.9353   6.848 -0.0001
   1.303   10513  0.9512 -0.0001   3.164
   1.262   10178  0.9825   7.051 -0.0001
   1.251   10091  0.9910 -0.0001   3.014
   1.190    9599   1.042   7.221 -0.0001
   1.187    9574   1.044 -0.0001   2.822
   1.134    9145   1.093   7.423 -0.0001
   1.132    9130   1.095 -0.0001   2.602
   1.097    8850   1.130 -0.0001   2.374
   1.096    8842   1.131   7.517 -0.0001
   1.075    8667   1.154 -0.0001   2.198
   1.074    8659   1.155   7.609 -0.0001
   1.061    8554   1.169 -0.0001   1.972
   1.040    8387   1.192 -0.0001   1.813
   1.037    8368   1.195   7.570 -0.0001
   1.023    8252   1.212   7.496 -0.0001
   1.011    8156   1.226 -0.0001   1.467
   1.006    8114   1.232 -0.0001   1.649
  0.9968    8040   1.244   7.382 -0.0001
  0.9713    7834   1.277 -0.0001   1.256
  0.9545    7699   1.299   7.206 -0.0001
  0.9363    7552   1.324 -0.0001   1.004
  0.9005    7263   1.377   6.998 -0.0001
  0.8596    6933   1.442 -0.0001   0.850
  0.8543    6890   1.451   6.811 -0.0001
  0.7769    6266   1.596 -0.0001   0.660
  0.7537    6079   1.645   6.612 -0.0001
