; Refractive index spectrum for Ge by Li-200K
;
; H. H. Li. Refractive index of silicon and germanium and its wavelength and temperature derivatives, <a href="http://dx.doi.org/10.1063/1.555624"><i>J. Phys. Chem. Ref. Data</i> <b>9</b>, 561-658 (1993)</a>
;
; 200 K (-73 Â°C)
;
; lambda/um    n     k
1.90 4.0680  0.0
1.92 4.0659  0.0
1.94 4.0638  0.0
1.96 4.0618  0.0
1.98 4.0598  0.0
2.00 4.0579  0.0
2.05 4.0534  0.0
2.10 4.0493  0.0
2.15 4.0454  0.0
2.20 4.0417  0.0
2.25 4.0383  0.0
2.30 4.0352  0.0
2.40 4.0294  0.0
2.50 4.0243  0.0
2.60 4.0197  0.0
2.70 4.0157  0.0
2.80 4.0121  0.0
2.90 4.0088  0.0
3.00 4.0059  0.0
3.20 4.0008  0.0
3.40 3.9966  0.0
3.60 3.9930  0.0
3.80 3.9900  0.0
4.00 3.9875  0.0
4.25 3.9848  0.0
4.50 3.9825  0.0
4.75 3.9806  0.0
5.00 3.9789  0.0
5.50 3.9763  0.0
6.00 3.9743  0.0
6.50 3.9727  0.0
7.00 3.9715  0.0
8.00 3.9697  0.0
9.00 3.9684  0.0
10.0 3.9675  0.0
11.0 3.9669  0.0
12.0 3.9664  0.0
13.0 3.9660  0.0
14.0 3.9657  0.0
15.0 3.9654  0.0
16.0 3.9652  0.0
17.0 3.9650  0.0
18.0 3.9649  0.0
