; Refractive index spectrum for Si by Li-550K
;
; H. H. Li. Refractive index of silicon and germanium and its wavelength and temperature derivatives, <a href="http://dx.doi.org/10.1063/1.555624"><i>J. Phys. Chem. Ref. Data</i> <b>9</b>, 561-658 (1993)</a>
;
; 550 K (277 Â°C)
;
; lambda/um    n     k
1.20 3.5749  0.0
1.22 3.5712  0.0
1.24 3.5678  0.0
1.26 3.5644  0.0
1.28 3.5613  0.0
1.30 3.5582  0.0
1.32 3.5554  0.0
1.34 3.5526  0.0
1.36 3.5500  0.0
1.38 3.5474  0.0
1.40 3.5450  0.0
1.45 3.5394  0.0
1.50 3.5343  0.0
1.55 3.5297  0.0
1.60 3.5255  0.0
1.65 3.5216  0.0
1.70 3.5181  0.0
1.80 3.5120  0.0
1.90 3.5068  0.0
2.00 3.5023  0.0
2.25 3.4937  0.0
2.50 3.4875  0.0
2.75 3.4829  0.0
3.00 3.4794  0.0
4.00 3.4713  0.0
5.00 3.4675  0.0
6.00 3.4655  0.0
7.00 3.4643  0.0
8.00 3.4635  0.0
9.00 3.4629  0.0
10.0 3.4625  0.0
11.0 3.4623  0.0
12.0 3.4620  0.0
13.0 3.4619  0.0
14.0 3.4617  0.0
